LabVIEW Measurement	
Writer_Version	2
Reader_Version	2
Separator	Tab
Decimal_Separator	.
Multi_Headings	No
X_Columns	One
Time_Pref	Absolute
Operator	MOATS
Date	2019/09/17
Time	13:45:49.2464890480041503906
***End_of_Header***	
	
Channels	15															
Samples	1	1	1	1	1	1	1	1	1	1	1	1	1	1	1	
Date	2019/09/17	2019/09/17	2019/09/17	2019/09/17	2019/09/17	2019/09/17	2019/09/17	2019/09/17	2019/09/17	2019/09/17	2019/09/17	2019/09/17	2019/09/17	2019/09/17	2019/09/17	
Time	13:45:49.2464890480041503906	13:45:49.2464890480041503906	13:45:49.2464890480041503906	13:45:49.2464890480041503906	13:45:49.2464890480041503906	13:45:49.2464890480041503906	13:45:49.2464890480041503906	13:45:49.2464890480041503906	13:45:49.2464890480041503906	13:45:49.2464890480041503906	13:45:49.2464890480041503906	13:45:49.2464890480041503906	13:45:49.2464890480041503906	13:45:49.2464890480041503906	13:45:49.2464890480041503906	
X_Dimension	Time	Time	Time	Time	Time	Time	Time	Time	Time	Time	Time	Time	Time	Time	Time	
X0	0.0000000000000000E+0	0.0000000000000000E+0	0.0000000000000000E+0	0.0000000000000000E+0	0.0000000000000000E+0	0.0000000000000000E+0	0.0000000000000000E+0	0.0000000000000000E+0	0.0000000000000000E+0	0.0000000000000000E+0	0.0000000000000000E+0	0.0000000000000000E+0	0.0000000000000000E+0	0.0000000000000000E+0	0.0000000000000000E+0	
Delta_X	1.000000	1.000000	1.000000	1.000000	1.000000	1.000000	1.000000	1.000000	1.000000	1.000000	1.000000	1.000000	1.000000	1.000000	1.000000	
***End_of_Header***																
X_Value	Untitled	Untitled 1	Untitled 2	Untitled 3	Untitled 4	Untitled 5	Untitled 6	Untitled 7	Untitled 8	Untitled 9	Untitled 10	Untitled 11	Untitled 12	Untitled 13	Untitled 14	Comment
0.000000	0.064420	7.790862	0.070693	11.111929	0.190185	0.094958	10.925467	0.094960	0.095778	8.582932	2.234158	2.234413	29.500000	7.460000	34.673685
1.800103	0.074902	7.789600	0.070623	11.113356	0.191218	0.094951	10.919531	0.095772	0.095805	8.583194	2.234158	2.234449	29.500000	7.460000	34.673685
7.800446	0.062322	7.790768	0.070687	11.109659	0.189593	0.094968	10.929538	0.096758	0.095759	8.583235	2.235657	2.234508	29.500000	7.460000	34.673685
13.799789	0.067922	7.790080	0.070639	11.092460	0.189980	0.095046	10.941535	0.096458	0.095705	8.583576	2.235263	2.234783	29.500000	7.460000	34.673685
19.800132	0.075644	7.790398	0.070653	11.085851	0.190319	0.095076	10.943654	0.094700	0.095695	8.583627	2.235342	2.234873	29.500000	7.460000	34.673685
25.800476	0.059514	7.789995	0.070626	11.078194	0.191155	0.095111	10.943765	0.095977	0.095694	8.583077	2.235815	2.234854	29.500000	7.460000	34.673685
31.799819	0.067551	7.789471	0.070594	11.073355	0.191463	0.095133	10.941331	0.095402	0.095706	8.583702	2.237630	2.235043	29.500000	7.460000	34.673685
37.800162	0.068466	7.788640	0.070547	11.073154	0.191210	0.095134	10.941599	0.095331	0.095704	8.584963	2.237630	2.235302	29.500000	7.460000	34.673685
43.800505	0.061517	7.787567	0.070491	11.081064	0.191194	0.095098	10.932842	0.094747	0.095744	8.586516	2.236446	2.235522	29.500000	7.460000	34.673685
49.799848	0.069294	7.787438	0.070486	11.085355	0.191076	0.095078	10.931127	0.094881	0.095752	8.587214	2.236446	2.235612	29.500000	7.460000	34.673685
55.800191	0.062101	7.787451	0.070485	11.082092	0.192094	0.095093	10.933939	0.094857	0.095739	8.587343	2.235421	2.235677	29.500000	7.460000	34.673685
61.799535	0.066660	7.787436	0.070485	11.083867	0.189759	0.095085	10.932511	0.096869	0.095746	8.586798	2.232896	2.235541	29.500000	7.460000	34.673685
67.799878	0.063087	7.786683	0.070446	11.090175	0.189932	0.095056	10.930437	0.096246	0.095755	8.586570	2.232896	2.235418	29.500000	7.460000	34.673685
73.800221	0.074807	7.786702	0.070448	11.092066	0.191683	0.095048	10.929290	0.094589	0.095761	8.585607	2.231555	2.235197	29.500000	7.460000	34.673685
79.799564	0.078980	7.786926	0.070460	11.090923	0.192165	0.095053	10.924883	0.095733	0.095781	8.584844	2.232975	2.235057	29.500000	7.460000	34.673685
85.799907	0.070454	7.786644	0.070444	11.090720	0.192125	0.095054	10.919538	0.097500	0.095805	8.584207	2.232896	2.234929	29.500000	7.460000	34.673685
91.800251	0.068419	7.786670	0.070447	11.093273	0.191628	0.095042	10.913406	0.097224	0.095833	8.583652	2.230451	2.234783	29.500000	7.460000	34.673685
97.799594	0.061225	7.786833	0.070455	11.091192	0.190256	0.095052	10.911496	0.094889	0.095842	8.582636	2.231555	2.234602	29.500000	7.460000	34.673685
103.799937	0.075005	7.787156	0.070473	11.090517	0.189940	0.095055	10.908478	0.097886	0.095856	8.581632	2.230451	2.234404	29.500000	7.460000	34.673685
109.800280	0.065335	7.787486	0.070493	11.092192	0.191794	0.095047	10.906013	0.096735	0.095867	8.580520	2.227847	2.234154	29.500000	7.460000	34.673685
115.799623	0.079217	7.787701	0.070506	11.094849	0.191652	0.095035	10.905438	0.096640	0.095870	8.579119	2.226664	2.233835	29.500000	7.460000	34.673685
121.799966	0.068135	7.787336	0.070486	11.096044	0.191376	0.095030	10.904125	0.094976	0.095876	8.577665	2.226585	2.233524	29.500000	7.460000	34.673685
127.800310	0.073427	7.787237	0.070480	11.095165	0.190090	0.095034	10.904409	0.095749	0.095875	8.576531	2.230214	2.233305	29.500000	7.460000	34.673685
133.799653	0.070051	7.786693	0.070451	11.097551	0.190335	0.095023	10.900659	0.096853	0.095892	8.576095	2.230293	2.233187	29.500000	7.460000	34.673685
139.799996	0.063615	7.786462	0.070438	11.098710	0.191321	0.095018	10.897670	0.094763	0.095905	8.575486	2.229030	2.233048	29.500000	7.460000	34.673685
145.800339	0.064988	7.786275	0.070428	11.098316	0.192180	0.095019	10.900530	0.096529	0.095892	8.574546	2.227847	2.232860	29.500000	7.460000	34.673685
151.799682	0.068095	7.786098	0.070418	11.099512	0.191754	0.095014	10.900433	0.095031	0.095893	8.573760	2.227847	2.232685	29.500000	7.460000	34.673685
157.800025	0.063410	7.785981	0.070415	11.105299	0.189136	0.094988	10.895927	0.095922	0.095913	8.573446	2.229109	2.232552	29.500000	7.460000	34.673685
163.800369	0.060642	7.785849	0.070410	11.109945	0.189506	0.094967	10.890058	0.096900	0.095940	8.573278	2.229109	2.232461	29.500000	7.460000	34.673685
169.799712	0.067914	7.785604	0.070398	11.112805	0.191534	0.094954	10.890215	0.096222	0.095940	8.573118	2.231713	2.232396	29.500000	7.460000	34.673685
175.800055	0.073632	7.785477	0.070393	11.118148	0.190705	0.094930	10.888418	0.096750	0.095948	8.573448	2.232975	2.232399	29.500000	7.460000	34.673685
181.800398	0.063205	7.785302	0.070386	11.122281	0.191194	0.094911	10.887866	0.096506	0.095950	8.573492	2.230372	2.232357	29.500000	7.460000	34.673685
187.799741	0.070367	7.785309	0.070388	11.126267	0.190232	0.094893	10.887390	0.094763	0.095953	8.573394	2.229109	2.232288	29.500000	7.460000	34.673685
193.800085	0.070943	7.785233	0.070383	11.124172	0.191171	0.094902	10.890514	0.096490	0.095938	8.572883	2.230214	2.232210	29.500000	7.460000	34.673685
199.800428	0.062290	7.785175	0.070379	11.122951	0.190461	0.094908	10.890552	0.096206	0.095938	8.572543	2.229109	2.232154	29.500000	7.460000	34.673685
205.799771	0.074311	7.785204	0.070382	11.125252	0.189223	0.094897	10.891848	0.095244	0.095932	8.572284	2.229109	2.232074	29.500000	7.460000	34.673685
211.800114	0.063457	7.785163	0.070380	11.125553	0.190366	0.094896	10.895866	0.095015	0.095914	8.571923	2.229109	2.231996	29.500000	7.460000	34.673685
217.800457	0.082198	7.785247	0.070383	11.122527	0.190729	0.094910	10.899333	0.095338	0.095898	8.571490	2.230293	2.231945	29.500000	7.460000	34.673685
223.799800	0.071881	7.785256	0.070383	11.122834	0.190879	0.094908	10.901914	0.095559	0.095886	8.571314	2.230293	2.231905	29.500000	7.460000	34.673685
229.800144	0.080029	7.785321	0.070388	11.124262	0.190548	0.094902	10.906801	0.095930	0.095864	8.571122	2.230214	2.231849	29.500000	7.460000	34.673685
235.800487	0.066612	7.785282	0.070386	11.124295	0.190697	0.094902	10.913172	0.094778	0.095834	8.570946	2.231634	2.231813	29.500000	7.460000	34.673685
241.799830	0.074445	7.785528	0.070399	11.124086	0.191273	0.094903	10.918801	0.096995	0.095809	8.570912	2.231555	2.231808	29.500000	7.460000	34.673685
247.800173	0.074445	7.785414	0.070395	11.128295	0.191021	0.094884	10.922313	0.096924	0.095793	8.571311	2.234158	2.231840	29.500000	7.460000	34.673685
253.800517	0.059672	7.785426	0.070397	11.129597	0.191470	0.094878	10.926597	0.097018	0.095773	8.571501	2.232896	2.231862	29.500000	7.460000	34.673685
259.799860	0.068923	7.785367	0.070394	11.131175	0.189025	0.094871	10.932973	0.094187	0.095744	8.571829	2.232896	2.231911	29.500000	7.460000	34.673685
265.800203	0.060610	7.785280	0.070389	11.130286	0.189790	0.094875	10.939006	0.093272	0.095716	8.571823	2.230293	2.231919	29.500000	7.460000	34.673685
271.799546	0.076535	7.785614	0.070409	11.132571	0.189278	0.094864	10.943481	0.096593	0.095696	8.571787	2.229030	2.231884	29.500000	7.460000	34.673685
277.799889	0.061730	7.785755	0.070420	11.138380	0.190784	0.094838	10.947410	0.093990	0.095678	8.571879	2.229188	2.231833	29.500000	7.460000	34.673685
283.800232	0.073419	7.785844	0.070426	11.140761	0.188978	0.094827	10.954354	0.096435	0.095646	8.571888	2.231634	2.231807	29.500000	7.460000	34.673685
289.799575	0.079374	7.786042	0.070437	11.139413	0.188710	0.094833	10.961339	0.094313	0.095614	8.571561	2.233606	2.231755	29.500000	7.460000	34.673685
295.799919	0.061919	7.786194	0.070444	11.137177	0.188970	0.094843	10.965747	0.093690	0.095594	8.571302	2.234158	2.231730	29.500000	7.460000	34.673685
301.800262	0.074437	7.786527	0.070461	11.133300	0.191991	0.094861	10.972614	0.095173	0.095563	8.571096	2.235263	2.231735	29.500000	7.460000	34.673685
307.799605	0.068316	7.786512	0.070457	11.127097	0.189546	0.094889	10.980652	0.095922	0.095526	8.570730	2.234158	2.231734	29.500000	7.460000	34.673685
313.799948	0.075218	7.786408	0.070450	11.125496	0.190414	0.094896	10.985044	0.094061	0.095506	8.570454	2.234080	2.231697	29.500000	7.460000	34.673685
319.800292	0.068569	7.786329	0.070446	11.126288	0.189144	0.094893	10.989844	0.093706	0.095484	8.570367	2.234158	2.231670	29.500000	7.460000	34.673685
325.799634	0.078909	7.786213	0.070438	11.124233	0.190690	0.094902	10.994423	0.094424	0.095463	8.570230	2.236762	2.231668	29.500000	7.460000	34.673685
