LabVIEW Measurement	
Writer_Version	2
Reader_Version	2
Separator	Tab
Decimal_Separator	.
Multi_Headings	No
X_Columns	One
Time_Pref	Absolute
Operator	MOATS
Date	2019/09/09
Time	22:06:31.0022006034851074219
***End_of_Header***	
	
Channels	15															
Samples	1	1	1	1	1	1	1	1	1	1	1	1	1	1	1	
Date	2019/09/09	2019/09/09	2019/09/09	2019/09/09	2019/09/09	2019/09/09	2019/09/09	2019/09/09	2019/09/09	2019/09/09	2019/09/09	2019/09/09	2019/09/09	2019/09/09	2019/09/09	
Time	22:06:31.0022006034851074219	22:06:31.0022006034851074219	22:06:31.0022006034851074219	22:06:31.0022006034851074219	22:06:31.0022006034851074219	22:06:31.0022006034851074219	22:06:31.0022006034851074219	22:06:31.0022006034851074219	22:06:31.0022006034851074219	22:06:31.0022006034851074219	22:06:31.0022006034851074219	22:06:31.0022006034851074219	22:06:31.0022006034851074219	22:06:31.0022006034851074219	22:06:31.0022006034851074219	
X_Dimension	Time	Time	Time	Time	Time	Time	Time	Time	Time	Time	Time	Time	Time	Time	Time	
X0	0.0000000000000000E+0	0.0000000000000000E+0	0.0000000000000000E+0	0.0000000000000000E+0	0.0000000000000000E+0	0.0000000000000000E+0	0.0000000000000000E+0	0.0000000000000000E+0	0.0000000000000000E+0	0.0000000000000000E+0	0.0000000000000000E+0	0.0000000000000000E+0	0.0000000000000000E+0	0.0000000000000000E+0	0.0000000000000000E+0	
Delta_X	1.000000	1.000000	1.000000	1.000000	1.000000	1.000000	1.000000	1.000000	1.000000	1.000000	1.000000	1.000000	1.000000	1.000000	1.000000	
***End_of_Header***																
X_Value	Untitled	Untitled 1	Untitled 2	Untitled 3	Untitled 4	Untitled 5	Untitled 6	Untitled 7	Untitled 8	Untitled 9	Untitled 10	Untitled 11	Untitled 12	Untitled 13	Untitled 14	Comment
0.000000	1.009838	24.662685	1.009838	11.065163	0.191915	0.095023	10.441742	0.097461	0.097058	9.375475	2.625985	2.626091	29.500000	7.460000	34.673685
2.600149	1.009838	24.663084	1.009838	11.055340	0.191663	0.095068	10.443987	0.096664	0.097048	9.375050	2.625985	2.626114	29.500000	7.460000	34.673685
8.599492	1.009838	24.663622	1.009838	11.047320	0.192065	0.095104	10.447147	0.096987	0.097033	9.377444	2.627327	2.626749	29.500000	7.460000	34.673685
14.599835	1.009838	24.663993	1.009838	11.042271	0.191915	0.095127	10.452893	0.097090	0.097007	9.376901	2.626064	2.626688	29.500000	7.460000	34.673685
20.599178	1.009838	24.663687	1.009838	11.047433	0.191134	0.095104	10.454904	0.097216	0.096997	9.376497	2.626143	2.626535	29.500000	7.460000	34.673685
26.599522	1.009838	24.662746	1.009838	11.059948	0.191970	0.095047	10.451182	0.096829	0.097014	9.376917	2.626301	2.626477	29.500000	7.460000	34.673685
32.599865	1.009838	24.663116	1.009838	11.054593	0.192499	0.095071	10.454978	0.097942	0.096997	9.376396	2.626064	2.626424	29.500000	7.460000	34.673685
38.599208	1.009838	24.662940	1.009838	11.057244	0.192239	0.095059	10.455562	0.096238	0.096994	9.376358	2.626064	2.626384	29.500000	7.460000	34.673685
44.599551	1.009838	24.662282	1.009838	11.066572	0.191710	0.095017	10.451050	0.097595	0.097015	9.376702	2.626143	2.626349	29.500000	7.460000	34.673685
50.599895	1.009838	24.662355	1.009838	11.065058	0.192523	0.095024	10.449596	0.096616	0.097022	9.376620	2.627248	2.626351	29.500000	7.460000	34.673685
56.600237	1.009838	24.662357	1.009838	11.065685	0.191442	0.095021	10.449426	0.096924	0.097023	9.377168	2.628353	2.626465	29.500000	7.460000	34.673685
62.599581	1.009838	24.662523	1.009838	11.063361	0.191000	0.095031	10.450393	0.096482	0.097018	9.377834	2.627327	2.626643	29.500000	7.460000	34.673685
68.599924	1.009838	24.662580	1.009838	11.062079	0.192223	0.095037	10.450537	0.096309	0.097017	9.377788	2.625985	2.626648	29.500000	7.460000	34.673685
74.599267	1.009838	24.662679	1.009838	11.061149	0.191505	0.095041	10.451382	0.097240	0.097014	9.377179	2.624880	2.626523	29.500000	7.460000	34.673685
80.599610	1.009838	24.662719	1.009838	11.060348	0.192483	0.095045	10.452805	0.097035	0.097007	9.376966	2.626064	2.626484	29.500000	7.460000	34.673685
86.599953	1.009838	24.662648	1.009838	11.061371	0.191308	0.095040	10.456025	0.096427	0.096992	9.376909	2.626143	2.626459	29.500000	7.460000	34.673685
92.599297	1.009838	24.662631	1.009838	11.061623	0.191513	0.095039	10.460029	0.096443	0.096973	9.376725	2.624802	2.626413	29.500000	7.460000	34.673685
98.599640	1.009838	24.662731	1.009838	11.060170	0.191276	0.095046	10.464195	0.096388	0.096954	9.376237	2.625433	2.626321	29.500000	7.460000	34.673685
104.599983	1.009838	24.662767	1.009838	11.059650	0.191679	0.095048	10.468751	0.096506	0.096933	9.375712	2.623618	2.626208	29.500000	7.460000	34.673685
110.599326	1.009838	24.662937	1.009838	11.057180	0.191639	0.095059	10.475394	0.096900	0.096902	9.374823	2.622434	2.626037	29.500000	7.460000	34.673685
116.599669	1.009838	24.662932	1.009838	11.057250	0.191907	0.095059	10.480149	0.096411	0.096880	9.374293	2.623618	2.625918	29.500000	7.460000	34.673685
122.600012	1.009838	24.662948	1.009838	11.057040	0.191268	0.095060	10.484880	0.096253	0.096858	9.373680	2.623776	2.625785	29.500000	7.460000	34.673685
128.599356	1.009838	24.662992	1.009838	11.056381	0.191450	0.095063	10.490464	0.096774	0.096832	9.373257	2.624880	2.625698	29.500000	7.460000	34.673685
134.599699	1.009838	24.662956	1.009838	11.057239	0.189335	0.095059	10.496108	0.096356	0.096806	9.373315	2.626064	2.625700	29.500000	7.460000	34.673685
140.601042	1.009838	24.663064	1.009838	11.055425	0.190976	0.095067	10.502008	0.096419	0.096779	9.373092	2.624802	2.625672	29.500000	7.460000	34.673685
146.599385	1.009838	24.663053	1.009838	11.055402	0.192199	0.095067	10.507129	0.096380	0.096755	9.372933	2.624249	2.625636	29.500000	7.460000	34.673685
152.599729	1.009838	24.663066	1.009838	11.055175	0.191126	0.095068	10.514872	0.095796	0.096719	9.372604	2.624880	2.625565	29.500000	7.460000	34.673685
158.599072	1.009838	24.663082	1.009838	11.055083	0.191142	0.095069	10.523264	0.095464	0.096680	9.372485	2.624880	2.625539	29.500000	7.460000	34.673685
164.599415	1.009838	24.662898	1.009838	11.057749	0.191150	0.095057	10.531247	0.096159	0.096644	9.372522	2.624880	2.625515	29.500000	7.460000	34.673685
170.599758	1.009838	24.662876	1.009838	11.058069	0.191600	0.095055	10.540558	0.095614	0.096601	9.372442	2.624723	2.625493	29.500000	7.460000	34.673685
176.599101	1.009838	24.662978	1.009838	11.056598	0.191197	0.095062	10.550665	0.095007	0.096554	9.372268	2.624802	2.625472	29.500000	7.460000	34.673685
182.599444	1.009838	24.662839	1.009838	11.058610	0.190771	0.095053	10.559728	0.095393	0.096512	9.372397	2.625985	2.625477	29.500000	7.460000	34.673685
188.599788	1.009838	24.662836	1.009838	11.058653	0.190590	0.095053	10.570795	0.095567	0.096461	9.372488	2.626064	2.625497	29.500000	7.460000	34.673685
194.599131	1.009838	24.663014	1.009838	11.056369	0.191142	0.095063	10.582642	0.096766	0.096406	9.372477	2.627564	2.625523	29.500000	7.460000	34.673685
200.599474	1.009838	24.662912	1.009838	11.057828	0.190329	0.095056	10.594816	0.095835	0.096350	9.372794	2.627327	2.625577	29.500000	7.460000	34.673685
206.599817	1.009838	24.662915	1.009838	11.057584	0.190550	0.095058	10.608671	0.095504	0.096286	9.373156	2.629694	2.625662	29.500000	7.460000	34.673685
212.599160	1.009838	24.662783	1.009838	11.059492	0.191118	0.095049	10.620312	0.096033	0.096233	9.373717	2.628432	2.625764	29.500000	7.460000	34.673685
218.601503	1.009838	24.662688	1.009838	11.060635	0.190022	0.095044	10.633915	0.094928	0.096170	9.374001	2.627485	2.625814	29.500000	7.460000	34.673685
224.599846	1.009838	24.662516	1.009838	11.063243	0.190921	0.095032	10.645814	0.095015	0.096116	9.374354	2.627248	2.625862	29.500000	7.460000	34.673685
230.599190	1.009838	24.662415	1.009838	11.064729	0.189832	0.095025	10.659462	0.095196	0.096053	9.374644	2.628274	2.625909	29.500000	7.460000	34.673685
236.599533	1.009838	24.662387	1.009838	11.065231	0.191008	0.095023	10.672575	0.096214	0.095993	9.374998	2.629063	2.625982	29.500000	7.460000	34.673685
242.599876	1.009838	24.662358	1.009838	11.065567	0.191489	0.095021	10.685607	0.095007	0.095933	9.375342	2.629694	2.626057	29.500000	7.460000	34.673685
248.599219	1.009838	24.662303	1.009838	11.066372	0.190621	0.095018	10.698435	0.094612	0.095874	9.375656	2.628511	2.626118	29.500000	7.460000	34.673685
254.599563	1.009838	24.662211	1.009838	11.067708	0.189422	0.095012	10.711393	0.095062	0.095815	9.375967	2.628511	2.626171	29.500000	7.460000	34.673685
260.599905	1.009838	24.661952	1.009838	11.071457	0.190298	0.094995	10.722572	0.095141	0.095764	9.376403	2.628432	2.626224	29.500000	7.460000	34.673685
266.599249	1.009838	24.661848	1.009838	11.072956	0.189272	0.094988	10.734858	0.095796	0.095707	9.376705	2.628432	2.626274	29.500000	7.460000	34.673685
272.599592	1.009838	24.661666	1.009838	11.075598	0.189832	0.094976	10.747705	0.095559	0.095649	9.376966	2.627406	2.626300	29.500000	7.460000	34.673685
278.599935	1.009838	24.661483	1.009838	11.078254	0.190937	0.094964	10.759012	0.094754	0.095597	9.377278	2.628432	2.626339	29.500000	7.460000	34.673685
284.599278	1.009838	24.661448	1.009838	11.078833	0.188949	0.094961	10.771682	0.094399	0.095539	9.377501	2.627169	2.626382	29.500000	7.460000	34.673685
290.599622	1.009838	24.661230	1.009838	11.082150	0.188365	0.094946	10.783545	0.094352	0.095485	9.377762	2.627879	2.626400	29.500000	7.460000	34.673685
296.599965	1.009838	24.661113	1.009838	11.083802	0.189588	0.094939	10.795081	0.095101	0.095433	9.377931	2.627327	2.626418	29.500000	7.460000	34.673685
302.601308	1.009838	24.660932	1.009838	11.086198	0.189856	0.094928	10.806528	0.094739	0.095380	9.378246	2.628432	2.626460	29.500000	7.460000	34.673685
308.599651	1.009838	24.660744	1.009838	11.088744	0.190629	0.094916	10.817601	0.093934	0.095330	9.378573	2.629931	2.626503	29.500000	7.460000	34.673685
314.599994	1.009838	24.660522	1.009838	11.092044	0.189453	0.094901	10.828752	0.094825	0.095279	9.378975	2.628353	2.626553	29.500000	7.460000	34.673685
320.599338	1.009838	24.660595	1.009838	11.090967	0.189848	0.094906	10.840865	0.094612	0.095224	9.379094	2.628511	2.626593	29.500000	7.460000	34.673685
326.599680	1.009838	24.660587	1.009838	11.091417	0.188554	0.094904	10.852318	0.094825	0.095172	9.379314	2.628353	2.626637	29.500000	7.460000	34.673685
332.600024	1.009838	24.660570	1.009838	11.091558	0.189659	0.094904	10.864356	0.094865	0.095117	9.379460	2.627248	2.626668	29.500000	7.460000	34.673685
338.599367	1.009838	24.660415	1.009838	11.093591	0.190527	0.094894	10.873914	0.095180	0.095074	9.379668	2.627169	2.626691	29.500000	7.460000	34.673685
344.599710	1.009838	24.660221	1.009838	11.096530	0.189588	0.094881	10.883615	0.094289	0.095030	9.380023	2.629694	2.626736	29.500000	7.460000	34.673685
350.600053	1.009838	24.660183	1.009838	11.097080	0.190637	0.094879	10.893125	0.094470	0.094987	9.380342	2.628353	2.626801	29.500000	7.460000	34.673685
356.599397	1.009838	24.660115	1.009838	11.098071	0.189816	0.094874	10.901793	0.095244	0.094948	9.380490	2.628274	2.626821	29.500000	7.460000	34.673685
362.599740	1.009838	24.660026	1.009838	11.099347	0.188657	0.094868	10.910217	0.093831	0.094909	9.380559	2.628432	2.626822	29.500000	7.460000	34.673685
368.599083	1.009838	24.659966	1.009838	11.100222	0.189067	0.094864	10.917055	0.093744	0.094879	9.380757	2.628353	2.626856	29.500000	7.460000	34.673685
374.599426	1.009838	24.659964	1.009838	11.100251	0.189114	0.094864	10.925173	0.093926	0.094842	9.381030	2.627248	2.626917	29.500000	7.460000	34.673685
380.599769	1.009838	24.659894	1.009838	11.101270	0.189201	0.094860	10.931702	0.094723	0.094812	9.381296	2.628432	2.626965	29.500000	7.460000	34.673685
386.599113	1.009838	24.659840	1.009838	11.102018	0.190337	0.094856	10.937166	0.094825	0.094788	9.381454	2.627248	2.626991	29.500000	7.460000	34.673685
392.599456	1.009838	24.659759	1.009838	11.103138	0.188909	0.094851	10.941606	0.095788	0.094767	9.381650	2.627564	2.627021	29.500000	7.460000	34.673685
398.599799	1.009838	24.659572	1.009838	11.106227	0.189509	0.094837	10.946192	0.094226	0.094747	9.382033	2.627327	2.627071	29.500000	7.460000	34.673685
404.599142	1.009838	24.659436	1.009838	11.107824	0.190124	0.094830	10.951275	0.093776	0.094724	9.382378	2.627248	2.627129	29.500000	7.460000	34.673685
410.600485	1.009838	24.659509	1.009838	11.106894	0.188412	0.094834	10.956026	0.095015	0.094702	9.382709	2.627327	2.627214	29.500000	7.460000	34.673685
416.599828	1.009838	24.659402	1.009838	11.108367	0.189319	0.094827	10.959422	0.095007	0.094687	9.383050	2.626143	2.627273	29.500000	7.460000	34.673685
422.599172	1.009838	24.659382	1.009838	11.108919	0.189840	0.094825	10.963662	0.094234	0.094668	9.383200	2.623618	2.627300	29.500000	7.460000	34.673685
428.599514	1.009838	24.659356	1.009838	11.108953	0.189446	0.094825	10.967310	0.094589	0.094651	9.383154	2.622355	2.627289	29.500000	7.460000	34.673685
434.599858	1.009838	24.659211	1.009838	11.111215	0.189659	0.094815	10.969851	0.094557	0.094640	9.383078	2.623539	2.627245	29.500000	7.460000	34.673685
440.599201	1.009838	24.659113	1.009838	11.112574	0.189359	0.094808	10.972557	0.094675	0.094628	9.382999	2.622276	2.627210	29.500000	7.460000	34.673685
446.599544	1.009838	24.659071	1.009838	11.113183	0.190045	0.094806	10.976481	0.094234	0.094610	9.382625	2.618567	2.627118	29.500000	7.460000	34.673685
452.599887	1.009838	24.659066	1.009838	11.113259	0.188925	0.094805	10.980652	0.093381	0.094591	9.382234	2.619909	2.627029	29.500000	7.460000	34.673685
458.599231	1.009838	24.658894	1.009838	11.115761	0.189446	0.094794	10.984118	0.094368	0.094575	9.382080	2.622355	2.626965	29.500000	7.460000	34.673685
464.599574	1.009838	24.658935	1.009838	11.115154	0.189106	0.094797	10.987698	0.094257	0.094559	9.381788	2.621093	2.626906	29.500000	7.460000	34.673685
470.601917	1.009838	24.658642	1.009838	11.119409	0.188522	0.094778	10.989368	0.093334	0.094552	9.381682	2.621250	2.626831	29.500000	7.460000	34.673685
476.599260	1.009838	24.658560	1.009838	11.120592	0.189745	0.094772	10.991755	0.094218	0.094541	9.381386	2.620146	2.626749	29.500000	7.460000	34.673685
482.599603	1.009838	24.658444	1.009838	11.122536	0.188499	0.094763	10.993862	0.094344	0.094531	9.381055	2.621329	2.626651	29.500000	7.460000	34.673685
488.599946	1.009838	24.658379	1.009838	11.123217	0.189477	0.094760	10.997528	0.094360	0.094515	9.380732	2.622671	2.626571	29.500000	7.460000	34.673685
494.599290	1.009838	24.658475	1.009838	11.121926	0.188554	0.094766	11.002650	0.094470	0.094492	9.380288	2.621250	2.626488	29.500000	7.460000	34.673685
500.599633	1.009838	24.658347	1.009838	11.123665	0.189138	0.094758	11.006511	0.093421	0.094474	9.379840	2.621250	2.626366	29.500000	7.460000	34.673685
506.599976	1.009838	24.658160	1.009838	11.126572	0.189327	0.094745	11.010484	0.094115	0.094457	9.379361	2.621566	2.626223	29.500000	7.460000	34.673685
512.599319	1.009838	24.658188	1.009838	11.126157	0.188712	0.094747	11.015171	0.094210	0.094435	9.378609	2.621172	2.626059	29.500000	7.460000	34.673685
518.600663	1.009838	24.658047	1.009838	11.128365	0.187678	0.094737	11.018829	0.094368	0.094419	9.378179	2.622355	2.625935	29.500000	7.460000	34.673685
524.600006	1.009838	24.657972	1.009838	11.129117	0.189012	0.094734	11.024161	0.093879	0.094395	9.377763	2.622276	2.625831	29.500000	7.460000	34.673685
530.599349	1.009838	24.657929	1.009838	11.129742	0.189083	0.094731	11.028828	0.092671	0.094374	9.377295	2.621172	2.625717	29.500000	7.460000	34.673685
536.599692	1.009838	24.657885	1.009838	11.130375	0.188365	0.094728	11.033166	0.093973	0.094354	9.376687	2.622276	2.625573	29.500000	7.460000	34.673685
542.600035	1.009838	24.657785	1.009838	11.131825	0.190463	0.094721	11.037214	0.093610	0.094336	9.376193	2.623618	2.625445	29.500000	7.460000	34.673685
548.599378	1.009838	24.657858	1.009838	11.130762	0.188720	0.094726	11.042250	0.093121	0.094314	9.375632	2.623539	2.625332	29.500000	7.460000	34.673685
554.599721	1.009838	24.657833	1.009838	11.131133	0.188917	0.094725	11.044711	0.094612	0.094303	9.375207	2.623460	2.625231	29.500000	7.460000	34.673685
560.600065	1.009838	24.657634	1.009838	11.134014	0.189801	0.094712	11.048037	0.093358	0.094288	9.374925	2.623618	2.625133	29.500000	7.460000	34.673685
566.599408	1.009838	24.657746	1.009838	11.132389	0.188491	0.094719	11.052663	0.093437	0.094267	9.374411	2.623539	2.625037	29.500000	7.460000	34.673685
572.599751	1.009838	24.657678	1.009838	11.133603	0.189603	0.094713	11.053988	0.094163	0.094261	9.374125	2.623618	2.624959	29.500000	7.460000	34.673685
578.599094	1.009838	24.657526	1.009838	11.135762	0.189816	0.094704	11.055548	0.094312	0.094254	9.373764	2.622197	2.624851	29.500000	7.460000	34.673685
584.599437	1.009838	24.657604	1.009838	11.134372	0.188822	0.094710	11.056913	0.094391	0.094248	9.373250	2.623618	2.624752	29.500000	7.460000	34.673685
590.599781	1.009838	24.657613	1.009838	11.134404	0.188870	0.094710	11.058237	0.094391	0.094242	9.372827	2.622276	2.624658	29.500000	7.460000	34.673685
596.599123	1.009838	24.657564	1.009838	11.134827	0.189919	0.094708	11.058213	0.094810	0.094242	9.372323	2.619751	2.624540	29.500000	7.460000	34.673685
602.599467	1.009838	24.657481	1.009838	11.135990	0.189769	0.094703	11.057346	0.094612	0.094246	9.371644	2.619830	2.624373	29.500000	7.460000	34.673685
608.599810	1.009838	24.657498	1.009838	11.136013	0.187773	0.094702	11.056446	0.093334	0.094250	9.370805	2.619830	2.624184	29.500000	7.460000	34.673685
614.599154	1.009838	24.657478	1.009838	11.136273	0.189043	0.094701	11.054640	0.094628	0.094258	9.369974	2.618962	2.623991	29.500000	7.460000	34.673685
620.599496	1.009838	24.657364	1.009838	11.137925	0.190747	0.094694	11.052708	0.095717	0.094267	9.369322	2.619672	2.623824	29.500000	7.460000	34.673685
626.599840	1.009838	24.657329	1.009838	11.138431	0.190061	0.094692	11.049541	0.094691	0.094281	9.368544	2.618567	2.623642	29.500000	7.460000	34.673685
632.599183	1.009838	24.657370	1.009838	11.137832	0.189406	0.094694	11.046673	0.095244	0.094294	9.367660	2.618409	2.623451	29.500000	7.460000	34.673685
638.599526	1.009838	24.657423	1.009838	11.137064	0.189698	0.094698	11.044001	0.094573	0.094306	9.366882	2.619830	2.623286	29.500000	7.460000	34.673685
644.599869	1.009838	24.657288	1.009838	11.139019	0.188941	0.094689	11.039169	0.093839	0.094327	9.366218	2.618488	2.623112	29.500000	7.460000	34.673685
650.599212	1.009838	24.657402	1.009838	11.137381	0.189248	0.094696	11.034519	0.095157	0.094348	9.365165	2.618567	2.622895	29.500000	7.460000	34.673685
656.600555	1.009838	24.657453	1.009838	11.136639	0.189761	0.094700	11.028381	0.095236	0.094376	9.364176	2.617226	2.622681	29.500000	7.460000	34.673685
662.599899	1.009838	24.657446	1.009838	11.136740	0.189122	0.094699	11.024339	0.094991	0.094394	9.363132	2.616042	2.622444	29.500000	7.460000	34.673685
668.599242	1.009838	24.657576	1.009838	11.134734	0.189816	0.094708	11.020728	0.094644	0.094410	9.361958	2.617226	2.622205	29.500000	7.460000	34.673685
674.599585	1.009838	24.657590	1.009838	11.134815	0.189130	0.094708	11.014539	0.096340	0.094438	9.361121	2.619830	2.622017	29.500000	7.460000	34.673685
680.599928	1.009838	24.657620	1.009838	11.133948	0.190385	0.094712	11.009912	0.094928	0.094459	9.360220	2.618488	2.621827	29.500000	7.460000	34.673685
686.599271	1.009838	24.657721	1.009838	11.132967	0.189272	0.094716	11.003772	0.094857	0.094487	9.359285	2.617305	2.621628	29.500000	7.460000	34.673685
692.599615	1.009838	24.657846	1.009838	11.130941	0.188988	0.094725	10.999509	0.094186	0.094506	9.358322	2.618567	2.621436	29.500000	7.460000	34.673685
698.599958	1.009838	24.657704	1.009838	11.132754	0.189935	0.094717	10.993197	0.094604	0.094534	9.357641	2.618488	2.621261	29.500000	7.460000	34.673685
704.599301	1.009838	24.657836	1.009838	11.131059	0.190116	0.094725	10.987889	0.093902	0.094558	9.356773	2.618488	2.621086	29.500000	7.460000	34.673685
710.599644	1.009838	24.657956	1.009838	11.129342	0.190811	0.094733	10.981835	0.095125	0.094586	9.355909	2.618409	2.620909	29.500000	7.460000	34.673685
716.599988	1.009838	24.657898	1.009838	11.130193	0.190298	0.094729	10.975072	0.095038	0.094616	9.355189	2.617384	2.620737	29.500000	7.460000	34.673685
722.599330	1.009838	24.657934	1.009838	11.129663	0.189958	0.094731	10.969686	0.095677	0.094641	9.354515	2.617305	2.620593	29.500000	7.460000	34.673685
728.599674	1.009838	24.658098	1.009838	11.127290	0.189738	0.094742	10.966112	0.095378	0.094657	9.353821	2.616042	2.620465	29.500000	7.460000	34.673685
734.600017	1.009838	24.658060	1.009838	11.127837	0.189603	0.094739	10.961167	0.094888	0.094679	9.353196	2.615963	2.620318	29.500000	7.460000	34.673685
740.599360	1.009838	24.658118	1.009838	11.127001	0.190100	0.094743	10.956779	0.095701	0.094699	9.352597	2.617305	2.620194	29.500000	7.460000	34.673685
746.599703	1.009838	24.658156	1.009838	11.126448	0.189951	0.094746	10.951901	0.094683	0.094721	9.352288	2.617226	2.620132	29.500000	7.460000	34.673685
752.600047	1.009838	24.658145	1.009838	11.126610	0.188546	0.094745	10.947072	0.094454	0.094743	9.352137	2.616200	2.620095	29.500000	7.460000	34.673685
758.599390	1.009838	24.658192	1.009838	11.125930	0.189895	0.094748	10.942124	0.094959	0.094765	9.351717	2.617147	2.620009	29.500000	7.460000	34.673685
764.599733	1.009838	24.658344	1.009838	11.123710	0.189738	0.094758	10.938051	0.095441	0.094784	9.351284	2.618409	2.619939	29.500000	7.460000	34.673685
770.599076	1.009838	24.658558	1.009838	11.120568	0.190108	0.094772	10.935091	0.094959	0.094797	9.350884	2.617226	2.619886	29.500000	7.460000	34.673685
776.599419	1.009838	24.658561	1.009838	11.120569	0.190140	0.094772	10.931137	0.094344	0.094815	9.350566	2.617305	2.619815	29.500000	7.460000	34.673685
782.599762	1.009838	24.658457	1.009838	11.122062	0.190077	0.094766	10.925834	0.095259	0.094839	9.350354	2.617305	2.619750	29.500000	7.460000	34.673685
788.599105	1.009838	24.658391	1.009838	11.123188	0.189209	0.094760	10.920187	0.094778	0.094864	9.349919	2.616042	2.619639	29.500000	7.460000	34.673685
794.599449	1.009838	24.658467	1.009838	11.121688	0.190037	0.094767	10.915233	0.094857	0.094887	9.349206	2.614622	2.619496	29.500000	7.460000	34.673685
800.599792	1.009838	24.658487	1.009838	11.121750	0.189209	0.094767	10.911822	0.095117	0.094902	9.348697	2.615884	2.619381	29.500000	7.460000	34.673685
806.599135	1.009838	24.658285	1.009838	11.124294	0.190511	0.094755	10.906915	0.094691	0.094924	9.348481	2.617305	2.619302	29.500000	7.460000	34.673685
812.599478	1.009838	24.658284	1.009838	11.124591	0.186668	0.094754	10.901108	0.094297	0.094951	9.348098	2.615963	2.619210	29.500000	7.460000	34.673685
818.599822	1.009838	24.658198	1.009838	11.125844	0.189098	0.094748	10.897199	0.094439	0.094968	9.347722	2.617226	2.619111	29.500000	7.460000	34.673685
824.599164	1.009838	24.658300	1.009838	11.124361	0.190266	0.094755	10.892379	0.094762	0.094990	9.347185	2.617226	2.619008	29.500000	7.460000	34.673685
830.599508	1.009838	24.658421	1.009838	11.122604	0.189801	0.094763	10.888366	0.095393	0.095009	9.346607	2.615963	2.618899	29.500000	7.460000	34.673685
836.599851	1.009838	24.658344	1.009838	11.123730	0.190534	0.094758	10.885912	0.096261	0.095020	9.346075	2.614701	2.618765	29.500000	7.460000	34.673685
842.599194	1.009838	24.658202	1.009838	11.125774	0.189351	0.094749	10.880403	0.095433	0.095045	9.345555	2.616042	2.618623	29.500000	7.460000	34.673685
848.599537	1.009838	24.658276	1.009838	11.124705	0.190866	0.094754	10.875938	0.094841	0.095065	9.344876	2.616042	2.618483	29.500000	7.460000	34.673685
854.599881	1.009838	24.658153	1.009838	11.126686	0.189288	0.094745	10.871750	0.095599	0.095084	9.344328	2.616042	2.618336	29.500000	7.460000	34.673685
860.599224	1.009838	24.658098	1.009838	11.127292	0.189722	0.094742	10.868001	0.097106	0.095101	9.343593	2.614701	2.618163	29.500000	7.460000	34.673685
866.599567	1.009838	24.658040	1.009838	11.128139	0.190077	0.094738	10.863168	0.094731	0.095123	9.342915	2.615963	2.618000	29.500000	7.460000	34.673685
872.599910	1.009838	24.658042	1.009838	11.127785	0.190448	0.094740	10.859795	0.095425	0.095138	9.342222	2.615963	2.617851	29.500000	7.460000	34.673685
878.599253	1.009838	24.657917	1.009838	11.130082	0.189548	0.094729	10.853205	0.094841	0.095168	9.341768	2.617305	2.617719	29.500000	7.460000	34.673685
884.599597	1.009838	24.657870	1.009838	11.130537	0.190290	0.094727	10.848646	0.094746	0.095189	9.341161	2.616042	2.617579	29.500000	7.460000	34.673685
890.599940	1.009838	24.657778	1.009838	11.131957	0.190187	0.094721	10.843505	0.095535	0.095212	9.340653	2.615884	2.617448	29.500000	7.460000	34.673685
896.599283	1.009838	24.657737	1.009838	11.132515	0.190471	0.094718	10.840878	0.094912	0.095224	9.340265	2.617463	2.617353	29.500000	7.460000	34.673685
902.599626	1.009838	24.657880	1.009838	11.130454	0.191047	0.094728	10.838884	0.094762	0.095233	9.339929	2.617226	2.617302	29.500000	7.460000	34.673685
908.599969	1.009838	24.657954	1.009838	11.129380	0.190250	0.094732	10.836609	0.095535	0.095244	9.339631	2.617226	2.617248	29.500000	7.460000	34.673685
914.599312	1.009838	24.657970	1.009838	11.129143	0.189919	0.094734	10.834425	0.095015	0.095253	9.339369	2.616042	2.617192	29.500000	7.460000	34.673685
920.599656	1.009838	24.657864	1.009838	11.130676	0.190566	0.094727	10.829354	0.095504	0.095277	9.339140	2.617226	2.617122	29.500000	7.460000	34.673685
926.599998	1.009838	24.657793	1.009838	11.131706	0.188183	0.094722	10.826452	0.095512	0.095290	9.338963	2.617778	2.617070	29.500000	7.460000	34.673685
932.599342	1.009838	24.657776	1.009838	11.131947	0.191671	0.094721	10.824345	0.094076	0.095299	9.338892	2.617226	2.617051	29.500000	7.460000	34.673685
938.599685	1.009838	24.657858	1.009838	11.130768	0.189635	0.094726	10.821866	0.094739	0.095311	9.338689	2.617226	2.617019	29.500000	7.460000	34.673685
944.600028	1.009838	24.657728	1.009838	11.132650	0.190321	0.094718	10.818651	0.096459	0.095325	9.338583	2.617226	2.616973	29.500000	7.460000	34.673685
950.599371	1.009838	24.657703	1.009838	11.133009	0.189840	0.094716	10.815415	0.095409	0.095340	9.338445	2.615963	2.616938	29.500000	7.460000	34.673685
956.599715	1.009838	24.657836	1.009838	11.131078	0.190803	0.094725	10.813395	0.095291	0.095349	9.338203	2.617226	2.616907	29.500000	7.460000	34.673685
962.600058	1.009838	24.657774	1.009838	11.132000	0.190116	0.094721	10.809754	0.095070	0.095366	9.338299	2.617463	2.616918	29.500000	7.460000	34.673685
968.599401	1.009838	24.657754	1.009838	11.132166	0.189745	0.094720	10.806114	0.096182	0.095382	9.338382	2.617226	2.616934	29.500000	7.460000	34.673685
974.599744	1.009838	24.657598	1.009838	11.134591	0.190250	0.094709	10.802874	0.095685	0.095397	9.338431	2.617305	2.616916	29.500000	7.460000	34.673685
980.599087	1.009838	24.657500	1.009838	11.135903	0.190369	0.094703	10.799343	0.096680	0.095413	9.338376	2.617305	2.616888	29.500000	7.460000	34.673685
986.599431	1.009838	24.657481	1.009838	11.135983	0.190661	0.094703	10.795536	0.094494	0.095430	9.338348	2.617226	2.616881	29.500000	7.460000	34.673685
992.599774	1.009838	24.657458	1.009838	11.136726	0.190321	0.094699	10.792614	0.096096	0.095444	9.338354	2.617305	2.616873	29.500000	7.460000	34.673685
998.599117	1.009838	24.657398	1.009838	11.137426	0.190842	0.094696	10.789616	0.095606	0.095457	9.338276	2.617147	2.616847	29.500000	7.460000	34.673685
1004.599460	1.009838	24.657458	1.009838	11.136567	0.190605	0.094700	10.787002	0.095749	0.095469	9.338122	2.617699	2.616822	29.500000	7.460000	34.673685
1010.599803	1.009838	24.657381	1.009838	11.137684	0.191576	0.094695	10.782409	0.095670	0.095490	9.338075	2.617226	2.616798	29.500000	7.460000	34.673685
1016.599146	1.009838	24.657506	1.009838	11.135867	0.190503	0.094703	10.782021	0.094849	0.095492	9.337904	2.617226	2.616782	29.500000	7.460000	34.673685
1022.599490	1.009838	24.657567	1.009838	11.134976	0.192144	0.094707	10.779372	0.094644	0.095504	9.337879	2.618488	2.616788	29.500000	7.460000	34.673685
1028.599833	1.009838	24.657650	1.009838	11.133787	0.190385	0.094713	10.778234	0.095741	0.095509	9.337940	2.618488	2.616816	29.500000	7.460000	34.673685
1034.599176	1.009838	24.657698	1.009838	11.133086	0.190164	0.094716	10.777021	0.095101	0.095515	9.338092	2.617226	2.616858	29.500000	7.460000	34.673685
1040.599519	1.009838	24.657660	1.009838	11.133760	0.190598	0.094713	10.774033	0.095646	0.095529	9.338140	2.617226	2.616861	29.500000	7.460000	34.673685
1046.599862	1.009838	24.657732	1.009838	11.132677	0.190842	0.094718	10.771218	0.095362	0.095541	9.338078	2.617305	2.616860	29.500000	7.460000	34.673685
1052.599205	1.009838	24.657648	1.009838	11.133716	0.190890	0.094713	10.767725	0.094194	0.095557	9.338119	2.617226	2.616856	29.500000	7.460000	34.673685
1058.599549	1.009838	24.657717	1.009838	11.132753	0.190913	0.094717	10.763362	0.095559	0.095577	9.338074	2.617226	2.616858	29.500000	7.460000	34.673685
1064.599892	1.009838	24.657656	1.009838	11.133525	0.191213	0.094714	10.759298	0.096127	0.095596	9.337907	2.615884	2.616811	29.500000	7.460000	34.673685
1070.599235	1.009838	24.657789	1.009838	11.131713	0.190890	0.094722	10.757106	0.095875	0.095606	9.337642	2.617226	2.616773	29.500000	7.460000	34.673685
1076.599578	1.009838	24.657723	1.009838	11.132562	0.190961	0.094718	10.753045	0.095307	0.095624	9.337689	2.617147	2.616774	29.500000	7.460000	34.673685
1082.599921	1.009838	24.657827	1.009838	11.130888	0.191079	0.094726	10.749692	0.095212	0.095640	9.337593	2.617147	2.616772	29.500000	7.460000	34.673685
1088.599265	1.009838	24.657935	1.009838	11.129653	0.190661	0.094731	10.746728	0.095599	0.095653	9.337552	2.617305	2.616778	29.500000	7.460000	34.673685
1094.599607	1.009838	24.658029	1.009838	11.128290	0.189714	0.094737	10.744853	0.095559	0.095662	9.337718	2.618409	2.616833	29.500000	7.460000	34.673685
1100.599951	1.009838	24.658171	1.009838	11.126231	0.190282	0.094747	10.742916	0.095583	0.095671	9.337879	2.618488	2.616894	29.500000	7.460000	34.673685
1106.599294	1.009838	24.658143	1.009838	11.126641	0.190448	0.094745	10.739530	0.095867	0.095686	9.338012	2.618409	2.616918	29.500000	7.460000	34.673685
1112.599638	1.009838	24.658268	1.009838	11.124818	0.190676	0.094753	10.738170	0.095528	0.095692	9.338054	2.617147	2.616950	29.500000	7.460000	34.673685
1118.599980	1.009838	24.658399	1.009838	11.122923	0.190527	0.094762	10.735097	0.097524	0.095706	9.338083	2.617147	2.616979	29.500000	7.460000	34.673685
1124.599324	1.009838	24.658542	1.009838	11.120850	0.190866	0.094771	10.733768	0.096324	0.095712	9.337937	2.617147	2.616971	29.500000	7.460000	34.673685
1130.599667	1.009838	24.658487	1.009838	11.121537	0.189856	0.094768	10.730822	0.095070	0.095726	9.338025	2.617305	2.616983	29.500000	7.460000	34.673685
1136.600010	1.009838	24.658400	1.009838	11.122828	0.190227	0.094762	10.727397	0.095638	0.095742	9.338316	2.618488	2.617033	29.500000	7.460000	34.673685
1142.599353	1.009838	24.658468	1.009838	11.122134	0.188664	0.094765	10.725199	0.094731	0.095752	9.338644	2.618409	2.617114	29.500000	7.460000	34.673685
1148.599696	1.009838	24.658591	1.009838	11.120307	0.189611	0.094773	10.724021	0.096001	0.095757	9.338756	2.618409	2.617162	29.500000	7.460000	34.673685
1154.600039	1.009838	24.658587	1.009838	11.120425	0.189517	0.094773	10.721982	0.096743	0.095766	9.338941	2.617226	2.617202	29.500000	7.460000	34.673685
1160.599383	1.009838	24.658624	1.009838	11.119644	0.191726	0.094776	10.721597	0.095875	0.095768	9.339113	2.615963	2.617250	29.500000	7.460000	34.673685
1166.599726	1.009838	24.658564	1.009838	11.120317	0.190968	0.094773	10.717145	0.094873	0.095789	9.339197	2.617699	2.617261	29.500000	7.460000	34.673685
1172.599069	1.009838	24.658595	1.009838	11.120090	0.191379	0.094774	10.714546	0.096182	0.095800	9.339285	2.617384	2.617284	29.500000	7.460000	34.673685
1178.599412	1.009838	24.658621	1.009838	11.119707	0.190045	0.094776	10.712078	0.095670	0.095812	9.339278	2.615805	2.617286	29.500000	7.460000	34.673685
1184.599755	1.009838	24.658665	1.009838	11.119074	0.190171	0.094779	10.709636	0.095946	0.095823	9.339196	2.615884	2.617276	29.500000	7.460000	34.673685
1190.599099	1.009838	24.658765	1.009838	11.117622	0.191434	0.094786	10.709235	0.096593	0.095825	9.339113	2.615963	2.617274	29.500000	7.460000	34.673685
1196.599442	1.009838	24.658720	1.009838	11.118281	0.190787	0.094783	10.706049	0.095291	0.095839	9.339163	2.618409	2.617278	29.500000	7.460000	34.673685
1202.599785	1.009838	24.658675	1.009838	11.118864	0.190353	0.094780	10.703557	0.095827	0.095851	9.339334	2.619593	2.617309	29.500000	7.460000	34.673685
1208.599128	1.009838	24.658794	1.009838	11.117601	0.190108	0.094786	10.702457	0.096727	0.095856	9.339380	2.618409	2.617335	29.500000	7.460000	34.673685
1214.599471	1.009838	24.658695	1.009838	11.118366	0.190905	0.094782	10.700050	0.095685	0.095867	9.339523	2.617147	2.617358	29.500000	7.460000	34.673685
1220.599814	1.009838	24.658570	1.009838	11.120494	0.190463	0.094773	10.697187	0.096877	0.095880	9.339783	2.618409	2.617391	29.500000	7.460000	34.673685
1226.599158	1.009838	24.658595	1.009838	11.120155	0.190542	0.094774	10.695224	0.095820	0.095889	9.339905	2.618331	2.617422	29.500000	7.460000	34.673685
1232.599501	1.009838	24.658443	1.009838	11.121916	0.191529	0.094766	10.691794	0.095196	0.095905	9.340048	2.618725	2.617433	29.500000	7.460000	34.673685
1238.599844	1.009838	24.658522	1.009838	11.121495	0.190637	0.094768	10.689169	0.096119	0.095917	9.340016	2.617147	2.617431	29.500000	7.460000	34.673685
1244.599187	1.009838	24.658561	1.009838	11.120698	0.190235	0.094772	10.686768	0.096388	0.095928	9.339999	2.618409	2.617437	29.500000	7.460000	34.673685
1250.599530	1.009838	24.658641	1.009838	11.119589	0.190819	0.094777	10.684595	0.096246	0.095938	9.340111	2.619751	2.617475	29.500000	7.460000	34.673685
1256.599874	1.009838	24.658839	1.009838	11.116614	0.190479	0.094790	10.683123	0.096151	0.095944	9.340152	2.618409	2.617520	29.500000	7.460000	34.673685
1262.599217	1.009838	24.658794	1.009838	11.117348	0.190842	0.094787	10.681701	0.095867	0.095951	9.340204	2.617305	2.617523	29.500000	7.460000	34.673685
1268.599560	1.009838	24.658582	1.009838	11.120276	0.189501	0.094774	10.678172	0.096743	0.095967	9.340401	2.618409	2.617533	29.500000	7.460000	34.673685
1274.599903	1.009838	24.658582	1.009838	11.120270	0.191608	0.094774	10.675373	0.096964	0.095980	9.340414	2.617147	2.617535	29.500000	7.460000	34.673685
1280.599247	1.009838	24.658585	1.009838	11.120234	0.190953	0.094774	10.672258	0.096829	0.095994	9.340406	2.617226	2.617534	29.500000	7.460000	34.673685
1286.599589	1.009838	24.658825	1.009838	11.116756	0.190463	0.094790	10.670380	0.096285	0.096003	9.340143	2.615963	2.617516	29.500000	7.460000	34.673685
1292.599933	1.009838	24.658918	1.009838	11.115410	0.191742	0.094796	10.668353	0.095007	0.096012	9.340003	2.617541	2.617502	29.500000	7.460000	34.673685
1298.599276	1.009838	24.658971	1.009838	11.114641	0.191600	0.094799	10.666523	0.095772	0.096020	9.339956	2.618409	2.617501	29.500000	7.460000	34.673685
1304.599619	1.009838	24.659129	1.009838	11.112348	0.190590	0.094809	10.665015	0.096238	0.096027	9.339937	2.618725	2.617524	29.500000	7.460000	34.673685
1310.599962	1.009838	24.659103	1.009838	11.112733	0.190203	0.094808	10.662835	0.096222	0.096037	9.340049	2.618567	2.617545	29.500000	7.460000	34.673685
1316.599306	1.009838	24.659198	1.009838	11.111344	0.190598	0.094814	10.661487	0.095962	0.096044	9.340097	2.619672	2.617573	29.500000	7.460000	34.673685
1322.599648	1.009838	24.659104	1.009838	11.112707	0.190574	0.094808	10.659378	0.096317	0.096053	9.340331	2.618331	2.617608	29.500000	7.460000	34.673685
1328.599992	1.009838	24.659136	1.009838	11.112247	0.190550	0.094810	10.656858	0.096064	0.096065	9.340300	2.618409	2.617606	29.500000	7.460000	34.673685
1334.599335	1.009838	24.659160	1.009838	11.111897	0.191560	0.094811	10.653540	0.096246	0.096080	9.340290	2.618331	2.617609	29.500000	7.460000	34.673685
1340.599678	1.009838	24.659304	1.009838	11.109807	0.191189	0.094821	10.650662	0.096703	0.096093	9.340377	2.618488	2.617654	29.500000	7.460000	34.673685
1346.600021	1.009838	24.659298	1.009838	11.109894	0.190448	0.094821	10.647768	0.095985	0.096107	9.340482	2.618409	2.617676	29.500000	7.460000	34.673685
1352.599364	1.009838	24.659190	1.009838	11.111471	0.190700	0.094813	10.644924	0.096632	0.096120	9.340659	2.618488	2.617697	29.500000	7.460000	34.673685
1358.599708	1.009838	24.659155	1.009838	11.111973	0.191181	0.094811	10.641620	0.096238	0.096135	9.340692	2.618488	2.617698	29.500000	7.460000	34.673685
1364.600051	1.009838	24.659170	1.009838	11.111758	0.191734	0.094812	10.639181	0.095741	0.096146	9.340983	2.620935	2.617768	29.500000	7.460000	34.673685
1370.599394	1.009838	24.659159	1.009838	11.111917	0.191339	0.094811	10.637176	0.096948	0.096155	9.341446	2.620935	2.617870	29.500000	7.460000	34.673685
1376.599737	1.009838	24.659207	1.009838	11.111216	0.190992	0.094815	10.635144	0.096396	0.096165	9.341669	2.619672	2.617928	29.500000	7.460000	34.673685
1382.599080	1.009838	24.659299	1.009838	11.109880	0.191592	0.094821	10.633562	0.095820	0.096172	9.341815	2.619830	2.617977	29.500000	7.460000	34.673685
1388.599423	1.009838	24.659177	1.009838	11.111659	0.190479	0.094813	10.631000	0.094991	0.096184	9.342185	2.621014	2.618039	29.500000	7.460000	34.673685
1394.599767	1.009838	24.659296	1.009838	11.109935	0.190905	0.094820	10.629547	0.095969	0.096190	9.342395	2.621014	2.618107	29.500000	7.460000	34.673685
1400.599110	1.009838	24.659325	1.009838	11.109507	0.191584	0.094822	10.627484	0.095820	0.096200	9.342549	2.619751	2.618146	29.500000	7.460000	34.673685
1406.599453	1.009838	24.659235	1.009838	11.110815	0.192057	0.094816	10.624319	0.096222	0.096214	9.342629	2.618331	2.618148	29.500000	7.460000	34.673685
1412.599796	1.009838	24.659308	1.009838	11.109762	0.190692	0.094821	10.621420	0.095157	0.096228	9.342572	2.618252	2.618148	29.500000	7.460000	34.673685
1418.599139	1.009838	24.659475	1.009838	11.107341	0.191852	0.094832	10.621382	0.097248	0.096228	9.342494	2.618409	2.618160	29.500000	7.460000	34.673685
1424.599483	1.009838	24.659521	1.009838	11.106671	0.190779	0.094835	10.619568	0.096119	0.096236	9.342592	2.618331	2.618190	29.500000	7.460000	34.673685
1430.599826	1.009838	24.659556	1.009838	11.106157	0.190345	0.094837	10.618913	0.096309	0.096239	9.342751	2.619593	2.618232	29.500000	7.460000	34.673685
1436.602169	1.009838	24.659584	1.009838	11.105758	0.191568	0.094839	10.617988	0.097098	0.096244	9.342854	2.618409	2.618260	29.500000	7.460000	34.673685
1442.599512	1.009838	24.659786	1.009838	11.102829	0.190976	0.094853	10.616956	0.097137	0.096248	9.342613	2.618646	2.618240	29.500000	7.460000	34.673685
1448.599855	1.009838	24.659794	1.009838	11.102713	0.192136	0.094853	10.614026	0.095614	0.096262	9.342648	2.618331	2.618250	29.500000	7.460000	34.673685
1454.599198	1.009838	24.659968	1.009838	11.100195	0.191442	0.094864	10.612496	0.095551	0.096269	9.342533	2.618409	2.618255	29.500000	7.460000	34.673685
1460.599542	1.009838	24.660045	1.009838	11.099080	0.189895	0.094869	10.610620	0.097469	0.096277	9.342653	2.619672	2.618296	29.500000	7.460000	34.673685
1466.599885	1.009838	24.660037	1.009838	11.099198	0.191047	0.094869	10.608262	0.095985	0.096288	9.343094	2.619593	2.618394	29.500000	7.460000	34.673685
1472.599228	1.009838	24.660094	1.009838	11.098365	0.192341	0.094873	10.605844	0.095575	0.096299	9.343281	2.619593	2.618446	29.500000	7.460000	34.673685
1478.599571	1.009838	24.660094	1.009838	11.098373	0.192144	0.094873	10.604487	0.095709	0.096306	9.343694	2.621014	2.618539	29.500000	7.460000	34.673685
1484.599915	1.009838	24.659984	1.009838	11.099966	0.191655	0.094865	10.603067	0.096719	0.096312	9.344154	2.621014	2.618624	29.500000	7.460000	34.673685
1490.599257	1.009838	24.659907	1.009838	11.101077	0.192199	0.094860	10.600243	0.096490	0.096325	9.344646	2.619593	2.618721	29.500000	7.460000	34.673685
1496.599601	1.009838	24.659896	1.009838	11.101235	0.191387	0.094860	10.597055	0.097153	0.096340	9.344919	2.619672	2.618780	29.500000	7.460000	34.673685
1502.599944	1.009838	24.659923	1.009838	11.100804	0.190795	0.094862	10.594534	0.097516	0.096351	9.345062	2.621014	2.618817	29.500000	7.460000	34.673685
1508.599287	1.009838	24.659985	1.009838	11.099941	0.191316	0.094866	10.593828	0.096506	0.096355	9.345325	2.622118	2.618887	29.500000	7.460000	34.673685
1514.599630	1.009838	24.660179	1.009838	11.097295	0.191379	0.094878	10.593458	0.096798	0.096356	9.345510	2.622118	2.618961	29.500000	7.460000	34.673685
1520.599974	1.009838	24.660342	1.009838	11.094899	0.191095	0.094888	10.591552	0.096916	0.096365	9.345710	2.620856	2.619034	29.500000	7.460000	34.673685
1526.599317	1.009838	24.660498	1.009838	11.092521	0.190826	0.094899	10.591697	0.095472	0.096365	9.345811	2.621014	2.619086	29.500000	7.460000	34.673685
1532.599660	1.009838	24.660471	1.009838	11.092794	0.190534	0.094898	10.590540	0.096403	0.096370	9.346000	2.619593	2.619125	29.500000	7.460000	34.673685
1538.600003	1.009838	24.660497	1.009838	11.092526	0.191032	0.094899	10.590380	0.096609	0.096371	9.346217	2.619672	2.619177	29.500000	7.460000	34.673685
1544.599346	1.009838	24.660413	1.009838	11.093842	0.191047	0.094893	10.589304	0.096238	0.096376	9.346467	2.619830	2.619217	29.500000	7.460000	34.673685
1550.599689	1.009838	24.660274	1.009838	11.095765	0.191316	0.094885	10.589102	0.097413	0.096377	9.346632	2.619672	2.619230	29.500000	7.460000	34.673685
1556.600033	1.009838	24.660253	1.009838	11.096149	0.190716	0.094883	10.589790	0.096348	0.096373	9.346758	2.619672	2.619255	29.500000	7.460000	34.673685
1562.599376	1.009838	24.660242	1.009838	11.096166	0.190676	0.094883	10.591420	0.095883	0.096366	9.346863	2.618252	2.619278	29.500000	7.460000	34.673685
1568.599719	1.009838	24.660136	1.009838	11.097878	0.191292	0.094875	10.590734	0.096514	0.096369	9.347009	2.618331	2.619290	29.500000	7.460000	34.673685
1574.600062	1.009838	24.660016	1.009838	11.099634	0.191821	0.094867	10.592458	0.096388	0.096361	9.347147	2.618331	2.619300	29.500000	7.460000	34.673685
1580.599405	1.009838	24.659955	1.009838	11.100151	0.190029	0.094865	10.593732	0.096624	0.096355	9.347280	2.618409	2.619324	29.500000	7.460000	34.673685
1586.599749	1.009838	24.659861	1.009838	11.101896	0.190574	0.094857	10.595948	0.097161	0.096345	9.347518	2.617147	2.619356	29.500000	7.460000	34.673685
1592.599092	1.009838	24.659633	1.009838	11.104948	0.190432	0.094843	10.597827	0.094510	0.096336	9.347776	2.618331	2.619377	29.500000	7.460000	34.673685
1598.599435	1.009838	24.659448	1.009838	11.107687	0.190479	0.094831	10.601538	0.095464	0.096319	9.348030	2.618252	2.619401	29.500000	7.460000	34.673685
1604.599778	1.009838	24.659274	1.009838	11.109983	0.191071	0.094820	10.605034	0.095086	0.096303	9.348148	2.619593	2.619400	29.500000	7.460000	34.673685
1610.599121	1.009838	24.659355	1.009838	11.109053	0.191213	0.094824	10.611086	0.095078	0.096275	9.348209	2.619593	2.619425	29.500000	7.460000	34.673685
1616.599464	1.009838	24.659452	1.009838	11.107934	0.190306	0.094829	10.618311	0.095338	0.096242	9.348239	2.619672	2.619445	29.500000	7.460000	34.673685
1622.599808	1.009838	24.659442	1.009838	11.107827	0.190874	0.094830	10.625516	0.096159	0.096209	9.348344	2.620935	2.619471	29.500000	7.460000	34.673685
1628.599151	1.009838	24.659561	1.009838	11.106065	0.190621	0.094838	10.633206	0.095630	0.096174	9.348414	2.621014	2.619508	29.500000	7.460000	34.673685
1634.599494	1.009838	24.659524	1.009838	11.106730	0.189974	0.094835	10.640994	0.094896	0.096138	9.348679	2.620935	2.619559	29.500000	7.460000	34.673685
1640.599837	1.009838	24.659510	1.009838	11.106866	0.189745	0.094834	10.649861	0.095007	0.096097	9.348861	2.622040	2.619598	29.500000	7.460000	34.673685
1646.599180	1.009838	24.659623	1.009838	11.105143	0.190448	0.094842	10.660871	0.095386	0.096046	9.349188	2.623618	2.619694	29.500000	7.460000	34.673685
1652.599524	1.009838	24.659737	1.009838	11.103789	0.190574	0.094848	10.671491	0.095196	0.095998	9.349508	2.622197	2.619782	29.500000	7.460000	34.673685
1658.599867	1.009838	24.659491	1.009838	11.107048	0.190061	0.094833	10.678493	0.095425	0.095966	9.350113	2.622197	2.619879	29.500000	7.460000	34.673685
1664.599210	1.009838	24.659427	1.009838	11.108002	0.189674	0.094829	10.688316	0.095827	0.095921	9.350456	2.623381	2.619944	29.500000	7.460000	34.673685
1670.599553	1.009838	24.659358	1.009838	11.108978	0.189895	0.094825	10.699974	0.095717	0.095867	9.350667	2.623302	2.619979	29.500000	7.460000	34.673685
1676.599896	1.009838	24.659289	1.009838	11.110034	0.189517	0.094820	10.709310	0.096482	0.095824	9.350957	2.623381	2.620031	29.500000	7.460000	34.673685
1682.599239	1.009838	24.659300	1.009838	11.110082	0.190061	0.094820	10.721227	0.095386	0.095770	9.351268	2.622197	2.620101	29.500000	7.460000	34.673685
1688.599583	1.009838	24.659410	1.009838	11.108340	0.189572	0.094828	10.733893	0.094904	0.095712	9.351378	2.622197	2.620146	29.500000	7.460000	34.673685
1694.599926	1.009838	24.659520	1.009838	11.106875	0.189430	0.094834	10.746871	0.094668	0.095653	9.351405	2.623381	2.620170	29.500000	7.460000	34.673685
1700.600269	1.009838	24.659606	1.009838	11.105540	0.189185	0.094840	10.759964	0.094581	0.095593	9.351594	2.623381	2.620229	29.500000	7.460000	34.673685
1706.599612	1.009838	24.659620	1.009838	11.105269	0.189311	0.094841	10.772344	0.095946	0.095536	9.352012	2.623302	2.620326	29.500000	7.460000	34.673685
1712.600955	1.009838	24.659428	1.009838	11.107804	0.190140	0.094830	10.782456	0.094202	0.095490	9.352540	2.623302	2.620414	29.500000	7.460000	34.673685
1718.599298	1.009838	24.659525	1.009838	11.106633	0.189398	0.094835	10.794771	0.095472	0.095434	9.352961	2.624486	2.620523	29.500000	7.460000	34.673685
1724.599642	1.009838	24.659604	1.009838	11.105795	0.188609	0.094839	10.804722	0.095378	0.095389	9.353490	2.625827	2.620652	29.500000	7.460000	34.673685
1730.599985	1.009838	24.659626	1.009838	11.105268	0.189927	0.094841	10.814618	0.095449	0.095344	9.354116	2.626932	2.620800	29.500000	7.460000	34.673685
1736.599328	1.009838	24.659903	1.009838	11.101104	0.189619	0.094860	10.826514	0.094936	0.095289	9.354670	2.627011	2.620975	29.500000	7.460000	34.673685
1742.599671	1.009838	24.659858	1.009838	11.102066	0.189193	0.094856	10.836107	0.095054	0.095246	9.355395	2.625670	2.621126	29.500000	7.460000	34.673685
1748.600014	1.009838	24.659838	1.009838	11.102091	0.189982	0.094856	10.843341	0.095559	0.095213	9.356003	2.625827	2.621263	29.500000	7.460000	34.673685
1754.599358	1.009838	24.659742	1.009838	11.103471	0.190187	0.094850	10.850732	0.093997	0.095179	9.356729	2.625749	2.621412	29.500000	7.460000	34.673685
1760.599701	1.009838	24.659768	1.009838	11.103095	0.189225	0.094851	10.855929	0.095551	0.095156	9.357267	2.625827	2.621537	29.500000	7.460000	34.673685
1766.600044	1.009838	24.659637	1.009838	11.104992	0.190187	0.094843	10.859635	0.094502	0.095139	9.357767	2.624486	2.621626	29.500000	7.460000	34.673685
1772.599387	1.009838	24.659701	1.009838	11.104057	0.189588	0.094847	10.863725	0.094589	0.095120	9.358117	2.624644	2.621716	29.500000	7.460000	34.673685
1778.599730	1.009838	24.659662	1.009838	11.104624	0.189974	0.094844	10.866895	0.095086	0.095106	9.358465	2.624565	2.621787	29.500000	7.460000	34.673685
1784.599073	1.009838	24.659872	1.009838	11.101582	0.189319	0.094858	10.871689	0.094975	0.095084	9.358693	2.624486	2.621875	29.500000	7.460000	34.673685
1790.599417	1.009838	24.659791	1.009838	11.102758	0.188175	0.094853	10.873446	0.095149	0.095076	9.359086	2.624644	2.621950	29.500000	7.460000	34.673685
1796.599760	1.009838	24.659708	1.009838	11.103954	0.189359	0.094847	10.875775	0.094920	0.095066	9.359557	2.623697	2.622041	29.500000	7.460000	34.673685
1802.599103	1.009838	24.659746	1.009838	11.103407	0.189138	0.094850	10.876575	0.094044	0.095062	9.359726	2.622118	2.622085	29.500000	7.460000	34.673685
1808.599446	1.009838	24.659742	1.009838	11.103474	0.190085	0.094850	10.879936	0.096332	0.095047	9.359672	2.621014	2.622071	29.500000	7.460000	34.673685
1814.599790	1.009838	24.659639	1.009838	11.104957	0.189359	0.094843	10.880027	0.095133	0.095046	9.359682	2.622118	2.622056	29.500000	7.460000	34.673685
1820.599133	1.009838	24.659568	1.009838	11.105994	0.189824	0.094838	10.879527	0.095362	0.095049	9.359749	2.620935	2.622059	29.500000	7.460000	34.673685
1826.599476	1.009838	24.659481	1.009838	11.107243	0.191726	0.094833	10.878884	0.094699	0.095052	9.359808	2.621014	2.622057	29.500000	7.460000	34.673685
1832.599819	1.009838	24.659384	1.009838	11.108652	0.188933	0.094826	10.875018	0.095220	0.095069	9.359987	2.621014	2.622080	29.500000	7.460000	34.673685
1838.599162	1.009838	24.659163	1.009838	11.111857	0.189753	0.094812	10.870583	0.095354	0.095089	9.360170	2.619909	2.622082	29.500000	7.460000	34.673685
1844.599505	1.009838	24.658986	1.009838	11.114427	0.189745	0.094800	10.866136	0.095788	0.095109	9.360318	2.619909	2.622085	29.500000	7.460000	34.673685
1850.599848	1.009838	24.658810	1.009838	11.116969	0.190629	0.094789	10.861017	0.094715	0.095133	9.360433	2.619672	2.622080	29.500000	7.460000	34.673685
1856.599192	1.009838	24.658699	1.009838	11.118580	0.191142	0.094781	10.855585	0.094344	0.095157	9.360540	2.620935	2.622085	29.500000	7.460000	34.673685
1862.599535	1.009838	24.658720	1.009838	11.118278	0.188917	0.094783	10.851863	0.094628	0.095174	9.360637	2.619593	2.622110	29.500000	7.460000	34.673685
1868.599878	1.009838	24.658589	1.009838	11.120177	0.190243	0.094774	10.847732	0.095251	0.095193	9.360895	2.620935	2.622146	29.500000	7.460000	34.673685
1874.599221	1.009838	24.658555	1.009838	11.120665	0.189304	0.094772	10.844322	0.095133	0.095208	9.361118	2.620935	2.622190	29.500000	7.460000	34.673685
1880.599564	1.009838	24.658280	1.009838	11.124647	0.189745	0.094754	10.838715	0.095922	0.095234	9.361509	2.620382	2.622230	29.500000	7.460000	34.673685
1886.599907	1.009838	24.657923	1.009838	11.129817	0.189958	0.094730	10.831160	0.095867	0.095268	9.361929	2.619593	2.622262	29.500000	7.460000	34.673685
1892.599251	1.009838	24.657799	1.009838	11.131542	0.190353	0.094723	10.824907	0.096380	0.095297	9.362149	2.618331	2.622290	29.500000	7.460000	34.673685
1898.599594	1.009838	24.657754	1.009838	11.132277	0.189880	0.094719	10.819778	0.095875	0.095320	9.362284	2.619988	2.622312	29.500000	7.460000	34.673685
1904.599937	1.009838	24.657687	1.009838	11.133313	0.191260	0.094715	10.814686	0.095180	0.095343	9.362459	2.619593	2.622338	29.500000	7.460000	34.673685
1910.599280	1.009838	24.657512	1.009838	11.135785	0.189753	0.094703	10.809374	0.095670	0.095367	9.362506	2.618331	2.622319	29.500000	7.460000	34.673685
1916.599623	1.009838	24.657369	1.009838	11.137850	0.189304	0.094694	10.804950	0.095378	0.095388	9.362503	2.618331	2.622293	29.500000	7.460000	34.673685
1922.599967	1.009838	24.657179	1.009838	11.140600	0.190598	0.094682	10.799721	0.096040	0.095411	9.362462	2.618331	2.622250	29.500000	7.460000	34.673685
1928.599310	1.009838	24.657042	1.009838	11.142592	0.190708	0.094673	10.795166	0.096222	0.095432	9.362473	2.619514	2.622229	29.500000	7.460000	34.673685
1934.599653	1.009838	24.656986	1.009838	11.143155	0.191126	0.094670	10.790001	0.095433	0.095456	9.362299	2.618331	2.622183	29.500000	7.460000	34.673685
1940.599996	1.009838	24.656950	1.009838	11.143753	0.190621	0.094668	10.785728	0.095512	0.095475	9.362163	2.619514	2.622145	29.500000	7.460000	34.673685
1946.599339	1.009838	24.656874	1.009838	11.145061	0.190448	0.094662	10.780506	0.095354	0.095499	9.361925	2.619593	2.622075	29.500000	7.460000	34.673685
1952.599682	1.009838	24.656788	1.009838	11.146208	0.189769	0.094656	10.777438	0.095141	0.095513	9.361806	2.620935	2.622035	29.500000	7.460000	34.673685
1958.600026	1.009838	24.656925	1.009838	11.144235	0.189785	0.094665	10.773834	0.096419	0.095529	9.361598	2.620935	2.622012	29.500000	7.460000	34.673685
1964.599369	1.009838	24.656921	1.009838	11.144333	0.189982	0.094665	10.769766	0.095220	0.095548	9.361426	2.621408	2.621972	29.500000	7.460000	34.673685
1970.599712	1.009838	24.656846	1.009838	11.145427	0.190314	0.094660	10.764547	0.095922	0.095572	9.361266	2.619593	2.621922	29.500000	7.460000	34.673685
1976.600055	1.009838	24.656773	1.009838	11.146180	0.190605	0.094657	10.760489	0.096845	0.095590	9.361014	2.619514	2.621856	29.500000	7.460000	34.673685
1982.599399	1.009838	24.656671	1.009838	11.147863	0.190511	0.094649	10.756794	0.096451	0.095607	9.360712	2.618331	2.621768	29.500000	7.460000	34.673685
1988.599741	1.009838	24.656674	1.009838	11.147794	0.190779	0.094649	10.752253	0.095291	0.095628	9.360367	2.618331	2.621691	29.500000	7.460000	34.673685
1994.599085	1.009838	24.656713	1.009838	11.147329	0.190187	0.094651	10.748548	0.096167	0.095645	9.360042	2.619593	2.621625	29.500000	7.460000	34.673685
2000.599428	1.009838	24.656629	1.009838	11.148570	0.190921	0.094646	10.744444	0.095543	0.095664	9.359775	2.619672	2.621549	29.500000	7.460000	34.673685
2006.599771	1.009838	24.656658	1.009838	11.148369	0.190558	0.094647	10.740780	0.095677	0.095680	9.359427	2.619593	2.621473	29.500000	7.460000	34.673685
2012.599114	1.009838	24.656702	1.009838	11.147513	0.190061	0.094651	10.736713	0.096490	0.095699	9.359013	2.618646	2.621391	29.500000	7.460000	34.673685
2018.599457	1.009838	24.656768	1.009838	11.146697	0.190416	0.094654	10.731734	0.097082	0.095722	9.358403	2.617147	2.621261	29.500000	7.460000	34.673685
2024.599801	1.009838	24.656655	1.009838	11.148225	0.190598	0.094647	10.726729	0.095370	0.095745	9.357903	2.618409	2.621133	29.500000	7.460000	34.673685
2030.599144	1.009838	24.656783	1.009838	11.146392	0.189548	0.094656	10.723850	0.094723	0.095758	9.357128	2.619672	2.620978	29.500000	7.460000	34.673685
2036.599487	1.009838	24.656812	1.009838	11.145798	0.190566	0.094658	10.720627	0.095496	0.095773	9.356396	2.619593	2.620823	29.500000	7.460000	34.673685
2042.599830	1.009838	24.656923	1.009838	11.144232	0.191197	0.094665	10.718172	0.095733	0.095784	9.355748	2.619593	2.620696	29.500000	7.460000	34.673685
2048.599174	1.009838	24.657041	1.009838	11.142593	0.191103	0.094673	10.716333	0.095472	0.095792	9.355063	2.618331	2.620562	29.500000	7.460000	34.673685
2054.599516	1.009838	24.657193	1.009838	11.140437	0.191347	0.094682	10.714539	0.096246	0.095800	9.354275	2.618409	2.620411	29.500000	7.460000	34.673685
2060.599860	1.009838	24.657274	1.009838	11.139244	0.191284	0.094688	10.712099	0.095693	0.095812	9.353503	2.617147	2.620251	29.500000	7.460000	34.673685
2066.599203	1.009838	24.657397	1.009838	11.136950	0.190905	0.094698	10.709849	0.095173	0.095822	9.352650	2.617068	2.620087	29.500000	7.460000	34.673685
2072.599546	1.009838	24.657572	1.009838	11.135222	0.189659	0.094706	10.707918	0.096601	0.095831	9.351926	2.617068	2.619945	29.500000	7.460000	34.673685
2078.599889	1.009838	24.657498	1.009838	11.135962	0.190432	0.094703	10.704431	0.096056	0.095847	9.351346	2.618252	2.619804	29.500000	7.460000	34.673685
2084.599233	1.009838	24.657387	1.009838	11.137781	0.191118	0.094694	10.700339	0.095938	0.095865	9.350893	2.618409	2.619682	29.500000	7.460000	34.673685
2090.599576	1.009838	24.657443	1.009838	11.136951	0.190337	0.094698	10.698334	0.096593	0.095875	9.350295	2.618173	2.619557	29.500000	7.460000	34.673685
2096.599919	1.009838	24.657451	1.009838	11.136712	0.190511	0.094699	10.695101	0.095614	0.095889	9.349856	2.619514	2.619461	29.500000	7.460000	34.673685
2102.599262	1.009838	24.657477	1.009838	11.136231	0.191402	0.094701	10.691839	0.096332	0.095904	9.349532	2.618331	2.619394	29.500000	7.460000	34.673685
2108.600605	1.009838	24.657487	1.009838	11.136228	0.190913	0.094701	10.688245	0.096443	0.095921	9.349271	2.618804	2.619336	29.500000	7.460000	34.673685
2114.599948	1.009838	24.657578	1.009838	11.134682	0.190645	0.094708	10.685352	0.095370	0.095934	9.349001	2.619593	2.619293	29.500000	7.460000	34.673685
2120.599291	1.009838	24.657820	1.009838	11.131171	0.191126	0.094724	10.683583	0.095409	0.095942	9.348572	2.618331	2.619239	29.500000	7.460000	34.673685
2126.599635	1.009838	24.657988	1.009838	11.128873	0.190732	0.094735	10.682577	0.095914	0.095947	9.348423	2.622118	2.619234	29.500000	7.460000	34.673685
2132.599978	1.009838	24.658302	1.009838	11.124273	0.191008	0.094756	10.682217	0.096064	0.095948	9.348220	2.621014	2.619243	29.500000	7.460000	34.673685
2138.599321	1.009838	24.658317	1.009838	11.124098	0.190479	0.094756	10.679956	0.095662	0.095959	9.348335	2.622040	2.619271	29.500000	7.460000	34.673685
2144.599664	1.009838	24.658322	1.009838	11.124127	0.190211	0.094756	10.676737	0.096727	0.095974	9.348404	2.619593	2.619287	29.500000	7.460000	34.673685
2150.600008	1.009838	24.658399	1.009838	11.122738	0.191726	0.094762	10.673428	0.095646	0.095989	9.348253	2.618252	2.619270	29.500000	7.460000	34.673685
2156.599350	1.009838	24.658310	1.009838	11.124220	0.191702	0.094756	10.670340	0.095977	0.096003	9.348208	2.619672	2.619241	29.500000	7.460000	34.673685
2162.599694	1.009838	24.658506	1.009838	11.121384	0.191189	0.094769	10.669117	0.096261	0.096009	9.348009	2.619593	2.619231	29.500000	7.460000	34.673685
2168.600037	1.009838	24.658708	1.009838	11.118453	0.191181	0.094782	10.668863	0.096908	0.096010	9.347812	2.619593	2.619221	29.500000	7.460000	34.673685
2174.599380	1.009838	24.658839	1.009838	11.116545	0.190511	0.094790	10.667516	0.096388	0.096016	9.347664	2.620856	2.619212	29.500000	7.460000	34.673685
2180.599723	1.009838	24.658849	1.009838	11.116406	0.192539	0.094791	10.665139	0.096143	0.096027	9.347699	2.619593	2.619221	29.500000	7.460000	34.673685
2186.599067	1.009838	24.658765	1.009838	11.117622	0.191308	0.094786	10.662881	0.096806	0.096037	9.347761	2.619672	2.619221	29.500000	7.460000	34.673685
2192.599410	1.009838	24.658656	1.009838	11.119200	0.191032	0.094778	10.660206	0.096900	0.096049	9.347907	2.619988	2.619235	29.500000	7.460000	34.673685
2198.599753	1.009838	24.658538	1.009838	11.120908	0.192215	0.094771	10.656032	0.097563	0.096069	9.348016	2.619593	2.619238	29.500000	7.460000	34.673685
2204.599096	1.009838	24.658438	1.009838	11.122356	0.191103	0.094764	10.651422	0.095677	0.096090	9.348090	2.619909	2.619237	29.500000	7.460000	34.673685
2210.600439	1.009838	24.658422	1.009838	11.122590	0.191158	0.094763	10.647895	0.096695	0.096106	9.348185	2.619435	2.619256	29.500000	7.460000	34.673685
2216.599782	1.009838	24.658447	1.009838	11.122233	0.191363	0.094765	10.646175	0.096143	0.096114	9.348339	2.621014	2.619296	29.500000	7.460000	34.673685
2222.599125	1.009838	24.658384	1.009838	11.123139	0.190558	0.094761	10.644940	0.095204	0.096120	9.348543	2.619830	2.619330	29.500000	7.460000	34.673685
2228.599469	1.009838	24.658521	1.009838	11.121162	0.191521	0.094770	10.644292	0.096388	0.096123	9.348480	2.619593	2.619339	29.500000	7.460000	34.673685
2234.599812	1.009838	24.658464	1.009838	11.121986	0.191655	0.094766	10.643034	0.096080	0.096128	9.348511	2.618173	2.619336	29.500000	7.460000	34.673685
2240.599155	1.009838	24.658492	1.009838	11.121574	0.191134	0.094768	10.640428	0.095520	0.096140	9.348436	2.619672	2.619325	29.500000	7.460000	34.673685
2246.599498	1.009838	24.658600	1.009838	11.120010	0.190661	0.094775	10.639485	0.096758	0.096145	9.348374	2.621329	2.619330	29.500000	7.460000	34.673685
2252.599842	1.009838	24.658512	1.009838	11.121294	0.191529	0.094769	10.636692	0.096790	0.096157	9.348420	2.621014	2.619325	29.500000	7.460000	34.673685
2258.599185	1.009838	24.658385	1.009838	11.123127	0.191418	0.094761	10.632910	0.096790	0.096175	9.348408	2.619514	2.619299	29.500000	7.460000	34.673685
2264.599528	1.009838	24.658305	1.009838	11.124290	0.191529	0.094755	10.630927	0.095338	0.096184	9.348467	2.621172	2.619299	29.500000	7.460000	34.673685
2270.599871	1.009838	24.658351	1.009838	11.123625	0.191513	0.094758	10.628752	0.096025	0.096194	9.348454	2.622040	2.619305	29.500000	7.460000	34.673685
2276.599214	1.009838	24.658347	1.009838	11.123685	0.189990	0.094758	10.626539	0.095654	0.096204	9.348676	2.622118	2.619354	29.500000	7.460000	34.673685
2282.599557	1.009838	24.658143	1.009838	11.126639	0.191363	0.094745	10.622938	0.095804	0.096221	9.349077	2.620856	2.619409	29.500000	7.460000	34.673685
2288.599901	1.009838	24.658144	1.009838	11.126616	0.191442	0.094745	10.621749	0.095622	0.096226	9.349414	2.622040	2.619485	29.500000	7.460000	34.673685
2294.599244	1.009838	24.658063	1.009838	11.127792	0.191197	0.094740	10.619069	0.096829	0.096239	9.349809	2.622040	2.619559	29.500000	7.460000	34.673685
2300.599587	1.009838	24.658156	1.009838	11.126441	0.191063	0.094746	10.617648	0.097027	0.096245	9.349884	2.619593	2.619592	29.500000	7.460000	34.673685
2306.600930	1.009838	24.658354	1.009838	11.123580	0.191229	0.094759	10.616141	0.095946	0.096252	9.349729	2.619514	2.619591	29.500000	7.460000	34.673685
2312.599273	1.009838	24.658290	1.009838	11.124499	0.190653	0.094755	10.613621	0.096459	0.096264	9.349819	2.619514	2.619601	29.500000	7.460000	34.673685
2318.599617	1.009838	24.658134	1.009838	11.126765	0.190392	0.094744	10.610016	0.096175	0.096280	9.350062	2.619593	2.619628	29.500000	7.460000	34.673685
2324.599960	1.009838	24.658173	1.009838	11.126206	0.191892	0.094747	10.609146	0.096206	0.096284	9.350157	2.619593	2.619656	29.500000	7.460000	34.673685
2330.599303	1.009838	24.658218	1.009838	11.125548	0.189911	0.094750	10.607743	0.096080	0.096291	9.350174	2.619672	2.619668	29.500000	7.460000	34.673685
2336.599646	1.009838	24.658173	1.009838	11.126202	0.191426	0.094747	10.605442	0.096861	0.096301	9.350209	2.619593	2.619668	29.500000	7.460000	34.673685
2342.599989	1.009838	24.658332	1.009838	11.123905	0.192546	0.094757	10.603014	0.096467	0.096312	9.350087	2.619593	2.619668	29.500000	7.460000	34.673685
2348.599332	1.009838	24.658364	1.009838	11.123431	0.190866	0.094759	10.601446	0.096427	0.096320	9.350111	2.619514	2.619679	29.500000	7.460000	34.673685
2354.599676	1.009838	24.658512	1.009838	11.121293	0.191268	0.094769	10.600492	0.094920	0.096324	9.350204	2.621014	2.619727	29.500000	7.460000	34.673685
2360.600019	1.009838	24.658553	1.009838	11.120695	0.191039	0.094772	10.600611	0.095764	0.096323	9.350449	2.620935	2.619790	29.500000	7.460000	34.673685
2366.599362	1.009838	24.658687	1.009838	11.118758	0.192452	0.094780	10.599224	0.097382	0.096330	9.350686	2.620935	2.619866	29.500000	7.460000	34.673685
2372.599705	1.009838	24.658781	1.009838	11.117396	0.191237	0.094787	10.596269	0.097003	0.096343	9.350958	2.620935	2.619944	29.500000	7.460000	34.673685
2378.600048	1.009838	24.658703	1.009838	11.118522	0.191892	0.094782	10.593001	0.096774	0.096359	9.351367	2.620935	2.620022	29.500000	7.460000	34.673685
2384.599391	1.009838	24.658856	1.009838	11.116307	0.191063	0.094792	10.590592	0.095946	0.096370	9.351402	2.619593	2.620056	29.500000	7.460000	34.673685
2390.599735	1.009838	24.658902	1.009838	11.115583	0.191489	0.094795	10.588415	0.097887	0.096380	9.351478	2.619593	2.620082	29.500000	7.460000	34.673685
2396.599078	1.009838	24.658844	1.009838	11.116449	0.191379	0.094791	10.585013	0.095622	0.096395	9.351549	2.620856	2.620087	29.500000	7.460000	34.673685
2402.599421	1.009838	24.658994	1.009838	11.114334	0.191158	0.094800	10.584044	0.096640	0.096400	9.351582	2.622118	2.620121	29.500000	7.460000	34.673685
2408.599764	1.009838	24.659173	1.009838	11.111555	0.191742	0.094813	10.584448	0.097106	0.096398	9.351753	2.620935	2.620193	29.500000	7.460000	34.673685
2414.599107	1.009838	24.659296	1.009838	11.109897	0.190882	0.094821	10.583288	0.096017	0.096403	9.351886	2.622118	2.620243	29.500000	7.460000	34.673685
2420.599451	1.009838	24.659092	1.009838	11.112892	0.191174	0.094807	10.581088	0.096198	0.096413	9.352398	2.623381	2.620323	29.500000	7.460000	34.673685
2426.599794	1.009838	24.659036	1.009838	11.113484	0.191205	0.094804	10.578775	0.095835	0.096424	9.352584	2.622197	2.620356	29.500000	7.460000	34.673685
2432.599137	1.009838	24.659087	1.009838	11.112764	0.190819	0.094808	10.576622	0.095875	0.096434	9.352599	2.622118	2.620368	29.500000	7.460000	34.673685
2438.599480	1.009838	24.659167	1.009838	11.111672	0.191615	0.094813	10.574654	0.096230	0.096443	9.352604	2.622197	2.620382	29.500000	7.460000	34.673685
2444.599823	1.009838	24.659399	1.009838	11.108400	0.192018	0.094827	10.574465	0.096766	0.096444	9.352572	2.622118	2.620415	29.500000	7.460000	34.673685
2450.599166	1.009838	24.659453	1.009838	11.107639	0.191615	0.094831	10.573458	0.096743	0.096449	9.352843	2.622040	2.620486	29.500000	7.460000	34.673685
2456.599510	1.009838	24.659548	1.009838	11.106207	0.192160	0.094837	10.572729	0.096206	0.096452	9.353095	2.622197	2.620559	29.500000	7.460000	34.673685
2462.599853	1.009838	24.659545	1.009838	11.106300	0.191615	0.094837	10.570572	0.096474	0.096462	9.353416	2.622118	2.620631	29.500000	7.460000	34.673685
2468.599196	1.009838	24.659497	1.009838	11.106936	0.191789	0.094834	10.567901	0.096206	0.096474	9.353593	2.619514	2.620662	29.500000	7.460000	34.673685
2474.599539	1.009838	24.659609	1.009838	11.105364	0.190795	0.094841	10.565420	0.096751	0.096486	9.353508	2.621014	2.620662	29.500000	7.460000	34.673685
2480.599883	1.009838	24.659737	1.009838	11.103644	0.190803	0.094849	10.563920	0.096317	0.096493	9.353523	2.622040	2.620686	29.500000	7.460000	34.673685
2486.599226	1.009838	24.659951	1.009838	11.100467	0.191402	0.094863	10.563772	0.098084	0.096493	9.353604	2.623223	2.620744	29.500000	7.460000	34.673685
2492.599569	1.009838	24.659868	1.009838	11.101658	0.191205	0.094858	10.562775	0.095733	0.096498	9.353996	2.623302	2.620816	29.500000	7.460000	34.673685
2498.599912	1.009838	24.659940	1.009838	11.100514	0.191686	0.094863	10.561639	0.096822	0.096503	9.354262	2.623302	2.620890	29.500000	7.460000	34.673685
2504.599255	1.009838	24.659760	1.009838	11.103285	0.190945	0.094850	10.559107	0.096601	0.096515	9.354720	2.622750	2.620960	29.500000	7.460000	34.673685
2510.599598	1.009838	24.659793	1.009838	11.102800	0.191931	0.094853	10.557641	0.096159	0.096522	9.354915	2.622118	2.621009	29.500000	7.460000	34.673685
2516.599942	1.009838	24.659776	1.009838	11.102976	0.191600	0.094852	10.556279	0.096790	0.096528	9.355088	2.622829	2.621046	29.500000	7.460000	34.673685
2522.599285	1.009838	24.659635	1.009838	11.105157	0.191742	0.094842	10.554507	0.096080	0.096536	9.355383	2.622592	2.621086	29.500000	7.460000	34.673685
2528.599628	1.009838	24.659749	1.009838	11.103481	0.191323	0.094850	10.553723	0.096893	0.096540	9.355517	2.622040	2.621137	29.500000	7.460000	34.673685
2534.599971	1.009838	24.659754	1.009838	11.103601	0.190613	0.094849	10.553396	0.096869	0.096541	9.355841	2.622040	2.621208	29.500000	7.460000	34.673685
2540.599314	1.009838	24.659794	1.009838	11.102722	0.191292	0.094853	10.553148	0.096198	0.096542	9.356081	2.622118	2.621273	29.500000	7.460000	34.673685
2546.599658	1.009838	24.659823	1.009838	11.102435	0.191600	0.094854	10.552369	0.097382	0.096546	9.356352	2.623381	2.621337	29.500000	7.460000	34.673685
2552.600000	1.009838	24.659715	1.009838	11.103701	0.191671	0.094849	10.548938	0.096561	0.096562	9.356638	2.622040	2.621386	29.500000	7.460000	34.673685
2558.599344	1.009838	24.659523	1.009838	11.106574	0.192491	0.094836	10.546142	0.096577	0.096575	9.357001	2.622118	2.621433	29.500000	7.460000	34.673685
2564.599687	1.009838	24.659678	1.009838	11.104498	0.189304	0.094845	10.544569	0.095764	0.096582	9.356986	2.621014	2.621455	29.500000	7.460000	34.673685
2570.600030	1.009838	24.659858	1.009838	11.101794	0.190266	0.094857	10.544201	0.096459	0.096584	9.356876	2.622118	2.621463	29.500000	7.460000	34.673685
2576.599373	1.009838	24.659899	1.009838	11.101199	0.191394	0.094860	10.543237	0.097547	0.096588	9.356846	2.622197	2.621463	29.500000	7.460000	34.673685
2582.599717	1.009838	24.659836	1.009838	11.102112	0.191663	0.094856	10.541087	0.096301	0.096598	9.356948	2.622118	2.621476	29.500000	7.460000	34.673685
2588.600060	1.009838	24.659877	1.009838	11.101510	0.190811	0.094858	10.540005	0.096435	0.096603	9.356929	2.623381	2.621479	29.500000	7.460000	34.673685
2594.599403	1.009838	24.659793	1.009838	11.102736	0.192097	0.094853	10.537542	0.096656	0.096614	9.357071	2.624565	2.621496	29.500000	7.460000	34.673685
2600.599746	1.009838	24.659953	1.009838	11.100416	0.191544	0.094863	10.536906	0.096072	0.096617	9.357219	2.623223	2.621558	29.500000	7.460000	34.673685
2606.599089	1.009838	24.660099	1.009838	11.098294	0.191300	0.094873	10.535926	0.097066	0.096622	9.357437	2.623302	2.621633	29.500000	7.460000	34.673685
2612.599432	1.009838	24.660254	1.009838	11.096048	0.191513	0.094883	10.535988	0.096751	0.096622	9.357690	2.623381	2.621716	29.500000	7.460000	34.673685
2618.599775	1.009838	24.660269	1.009838	11.095826	0.191371	0.094884	10.534995	0.097050	0.096626	9.358079	2.623381	2.621807	29.500000	7.460000	34.673685
2624.599119	1.009838	24.660198	1.009838	11.096865	0.190945	0.094880	10.533239	0.096317	0.096634	9.358391	2.622040	2.621864	29.500000	7.460000	34.673685
2630.599462	1.009838	24.660200	1.009838	11.096838	0.193257	0.094880	10.531881	0.095646	0.096641	9.358668	2.623223	2.621927	29.500000	7.460000	34.673685
2636.599805	1.009838	24.660349	1.009838	11.094677	0.191884	0.094889	10.530423	0.096790	0.096647	9.358884	2.623144	2.622002	29.500000	7.460000	34.673685
2642.599148	1.009838	24.660671	1.009838	11.090016	0.192097	0.094911	10.529861	0.096104	0.096650	9.359009	2.624959	2.622087	29.500000	7.460000	34.673685
2648.599492	1.009838	24.660845	1.009838	11.087482	0.191765	0.094922	10.529690	0.096869	0.096651	9.359255	2.623302	2.622172	29.500000	7.460000	34.673685
2654.599834	1.009838	24.660908	1.009838	11.086580	0.191047	0.094926	10.528756	0.096198	0.096655	9.359463	2.623223	2.622230	29.500000	7.460000	34.673685
2660.599178	1.009838	24.660909	1.009838	11.086561	0.192073	0.094926	10.526306	0.096932	0.096666	9.359695	2.623302	2.622282	29.500000	7.460000	34.673685
2666.599521	1.009838	24.660861	1.009838	11.087253	0.191773	0.094923	10.523829	0.096979	0.096678	9.359946	2.623381	2.622330	29.500000	7.460000	34.673685
2672.599864	1.009838	24.661096	1.009838	11.083857	0.190645	0.094938	10.522838	0.096269	0.096682	9.359976	2.623223	2.622378	29.500000	7.460000	34.673685
2678.599207	1.009838	24.660938	1.009838	11.086148	0.192081	0.094928	10.521906	0.097327	0.096687	9.360332	2.624880	2.622431	29.500000	7.460000	34.673685
2684.599551	1.009838	24.660923	1.009838	11.086363	0.192326	0.094927	10.521241	0.096774	0.096690	9.360740	2.624565	2.622520	29.500000	7.460000	34.673685
2690.599894	1.009838	24.660862	1.009838	11.087247	0.191694	0.094923	10.518561	0.097634	0.096702	9.361128	2.623381	2.622597	29.500000	7.460000	34.673685
2696.599237	1.009838	24.660911	1.009838	11.086538	0.191008	0.094926	10.518087	0.096033	0.096704	9.361415	2.623223	2.622669	29.500000	7.460000	34.673685
2702.599580	1.009838	24.661089	1.009838	11.083959	0.191300	0.094938	10.519616	0.096680	0.096697	9.361465	2.623302	2.622711	29.500000	7.460000	34.673685
2708.599923	1.009838	24.661320	1.009838	11.080601	0.191710	0.094953	10.521884	0.096151	0.096687	9.361325	2.622040	2.622720	29.500000	7.460000	34.673685
2714.599267	1.009838	24.661346	1.009838	11.080229	0.191552	0.094955	10.524303	0.096482	0.096676	9.361330	2.622197	2.622726	29.500000	7.460000	34.673685
2720.599609	1.009838	24.661282	1.009838	11.081159	0.191576	0.094951	10.524236	0.098116	0.096676	9.361329	2.622118	2.622714	29.500000	7.460000	34.673685
2726.599953	1.009838	24.661347	1.009838	11.080212	0.191584	0.094955	10.525624	0.096246	0.096670	9.361264	2.622118	2.622711	29.500000	7.460000	34.673685
2732.599296	1.009838	24.661666	1.009838	11.075603	0.191268	0.094976	10.531067	0.095070	0.096644	9.361008	2.620935	2.622709	29.500000	7.460000	34.673685
2738.599639	1.009838	24.661786	1.009838	11.073854	0.191142	0.094984	10.535348	0.096340	0.096625	9.360832	2.622118	2.622691	29.500000	7.460000	34.673685
2744.599982	1.009838	24.661760	1.009838	11.074236	0.191552	0.094982	10.540174	0.096175	0.096602	9.360767	2.621487	2.622671	29.500000	7.460000	34.673685
2750.599326	1.009838	24.661693	1.009838	11.075206	0.191292	0.094978	10.544874	0.095788	0.096581	9.360731	2.622118	2.622651	29.500000	7.460000	34.673685
2756.599669	1.009838	24.661499	1.009838	11.078013	0.191710	0.094965	10.550080	0.095575	0.096557	9.360887	2.622197	2.622653	29.500000	7.460000	34.673685
2762.600012	1.009838	24.661510	1.009838	11.077856	0.190905	0.094966	10.556096	0.095378	0.096529	9.360807	2.623381	2.622637	29.500000	7.460000	34.673685
2768.599355	1.009838	24.661728	1.009838	11.074705	0.191466	0.094980	10.564963	0.095875	0.096488	9.360819	2.622040	2.622678	29.500000	7.460000	34.673685
2774.599698	1.009838	24.661862	1.009838	11.072760	0.189690	0.094989	10.573134	0.095078	0.096450	9.360898	2.622040	2.622719	29.500000	7.460000	34.673685
2780.600041	1.009838	24.661842	1.009838	11.073054	0.190740	0.094987	10.581143	0.094778	0.096413	9.360960	2.623302	2.622729	29.500000	7.460000	34.673685
2786.599385	1.009838	24.661626	1.009838	11.076180	0.190771	0.094973	10.588454	0.095749	0.096380	9.361286	2.624486	2.622765	29.500000	7.460000	34.673685
2792.599728	1.009838	24.661403	1.009838	11.079406	0.190763	0.094959	10.597045	0.095701	0.096340	9.361574	2.625749	2.622791	29.500000	7.460000	34.673685
2798.599071	1.009838	24.661345	1.009838	11.080242	0.190811	0.094955	10.607221	0.095101	0.096293	9.361795	2.624565	2.622831	29.500000	7.460000	34.673685
2804.599414	1.009838	24.661542	1.009838	11.077386	0.191087	0.094968	10.618839	0.095543	0.096240	9.361780	2.624486	2.622862	29.500000	7.460000	34.673685
2810.599757	1.009838	24.661565	1.009838	11.077061	0.190164	0.094969	10.630040	0.094952	0.096188	9.361909	2.623381	2.622895	29.500000	7.460000	34.673685
2816.599101	1.009838	24.661558	1.009838	11.077155	0.190629	0.094969	10.640852	0.095630	0.096138	9.361950	2.623302	2.622902	29.500000	7.460000	34.673685
2822.599444	1.009838	24.661513	1.009838	11.077818	0.189343	0.094966	10.652892	0.096403	0.096083	9.362182	2.625117	2.622947	29.500000	7.460000	34.673685
2828.599787	1.009838	24.661769	1.009838	11.074109	0.190361	0.094983	10.666612	0.095236	0.096020	9.362188	2.624486	2.622993	29.500000	7.460000	34.673685
2834.599130	1.009838	24.661869	1.009838	11.072650	0.190014	0.094989	10.679137	0.094904	0.095963	9.362325	2.623381	2.623041	29.500000	7.460000	34.673685
2840.599473	1.009838	24.661932	1.009838	11.071745	0.190235	0.094993	10.693926	0.094999	0.095895	9.362385	2.623302	2.623066	29.500000	7.460000	34.673685
2846.599816	1.009838	24.662004	1.009838	11.070701	0.189296	0.094998	10.707903	0.095307	0.095831	9.362349	2.623381	2.623070	29.500000	7.460000	34.673685
2852.599160	1.009838	24.661733	1.009838	11.074676	0.189958	0.094980	10.719294	0.095670	0.095779	9.362503	2.623223	2.623057	29.500000	7.460000	34.673685
2858.599503	1.009838	24.661446	1.009838	11.079174	0.190164	0.094960	10.729172	0.095157	0.095733	9.362899	2.625749	2.623092	29.500000	7.460000	34.673685
2864.599846	1.009838	24.661282	1.009838	11.081252	0.189919	0.094950	10.740623	0.095370	0.095681	9.363370	2.626932	2.623174	29.500000	7.460000	34.673685
2870.599189	1.009838	24.661369	1.009838	11.080112	0.189722	0.094955	10.756122	0.095133	0.095610	9.363789	2.627011	2.623282	29.500000	7.460000	34.673685
2876.599532	1.009838	24.661372	1.009838	11.079645	0.189935	0.094958	10.770057	0.094423	0.095547	9.364245	2.626932	2.623388	29.500000	7.460000	34.673685
2882.599875	1.009838	24.661238	1.009838	11.081844	0.189540	0.094948	10.782022	0.094857	0.095492	9.364720	2.625749	2.623469	29.500000	7.460000	34.673685
2888.599218	1.009838	24.661090	1.009838	11.084064	0.189240	0.094938	10.793494	0.095173	0.095440	9.365214	2.626932	2.623554	29.500000	7.460000	34.673685
2894.599562	1.009838	24.661204	1.009838	11.082316	0.188696	0.094945	10.806263	0.094746	0.095382	9.365384	2.626064	2.623613	29.500000	7.460000	34.673685
2900.599905	1.009838	24.661049	1.009838	11.084622	0.189264	0.094935	10.817224	0.094691	0.095332	9.365678	2.626932	2.623652	29.500000	7.460000	34.673685
2906.599248	1.009838	24.660894	1.009838	11.086554	0.189177	0.094926	10.829055	0.094999	0.095278	9.366045	2.627406	2.623710	29.500000	7.460000	34.673685
2912.599591	1.009838	24.660766	1.009838	11.088823	0.188720	0.094916	10.840085	0.094660	0.095228	9.366494	2.627327	2.623784	29.500000	7.460000	34.673685
2918.599935	1.009838	24.660581	1.009838	11.091156	0.190061	0.094905	10.849864	0.095101	0.095183	9.367015	2.626853	2.623873	29.500000	7.460000	34.673685
2924.599277	1.009838	24.660310	1.009838	11.095153	0.189580	0.094887	10.858843	0.094454	0.095142	9.367537	2.624486	2.623942	29.500000	7.460000	34.673685
2930.599621	1.009838	24.660254	1.009838	11.095953	0.189020	0.094884	10.869190	0.094336	0.095096	9.367590	2.622118	2.623944	29.500000	7.460000	34.673685
2936.599964	1.009838	24.660356	1.009838	11.094775	0.189367	0.094889	10.880171	0.094746	0.095046	9.367541	2.624802	2.623947	29.500000	7.460000	34.673685
2942.599307	1.009838	24.660216	1.009838	11.096688	0.188933	0.094880	10.889626	0.095165	0.095003	9.367741	2.626222	2.623969	29.500000	7.460000	34.673685
2948.599650	1.009838	24.659946	1.009838	11.100611	0.189335	0.094863	10.897576	0.095054	0.094967	9.368144	2.625827	2.624013	29.500000	7.460000	34.673685
2954.599994	1.009838	24.659636	1.009838	11.104843	0.189501	0.094843	10.904954	0.095393	0.094933	9.368583	2.624486	2.624060	29.500000	7.460000	34.673685
2960.599337	1.009838	24.659565	1.009838	11.106107	0.189027	0.094838	10.915328	0.094123	0.094886	9.368677	2.623302	2.624066	29.500000	7.460000	34.673685
2966.599680	1.009838	24.659400	1.009838	11.108490	0.189319	0.094827	10.925286	0.095409	0.094841	9.368872	2.625749	2.624081	29.500000	7.460000	34.673685
2972.601023	1.009838	24.659181	1.009838	11.111526	0.188570	0.094813	10.933908	0.093950	0.094802	9.369249	2.625749	2.624130	29.500000	7.460000	34.673685
2978.599366	1.009838	24.658903	1.009838	11.115839	0.188657	0.094794	10.940177	0.094099	0.094774	9.369616	2.624486	2.624160	29.500000	7.460000	34.673685
2984.599710	1.009838	24.658648	1.009838	11.119265	0.189540	0.094778	10.947953	0.093665	0.094739	9.369791	2.623223	2.624158	29.500000	7.460000	34.673685
2990.600053	1.009838	24.658563	1.009838	11.120371	0.189351	0.094773	10.957568	0.094691	0.094695	9.369899	2.624565	2.624169	29.500000	7.460000	34.673685
2996.599396	1.009838	24.658433	1.009838	11.122752	0.188759	0.094762	10.966071	0.094833	0.094657	9.370132	2.624486	2.624192	29.500000	7.460000	34.673685
3002.599739	1.009838	24.658437	1.009838	11.122618	0.188112	0.094763	10.975917	0.095315	0.094612	9.370232	2.624486	2.624217	29.500000	7.460000	34.673685
3008.599082	1.009838	24.658542	1.009838	11.120744	0.189059	0.094771	10.985699	0.094533	0.094568	9.370310	2.623144	2.624257	29.500000	7.460000	34.673685
3014.599425	1.009838	24.658360	1.009838	11.123481	0.188838	0.094759	10.993142	0.093847	0.094535	9.370571	2.622118	2.624282	29.500000	7.460000	34.673685
3020.599769	1.009838	24.658152	1.009838	11.126453	0.188870	0.094746	10.999630	0.093539	0.094505	9.370779	2.622040	2.624293	29.500000	7.460000	34.673685
3026.599112	1.009838	24.658070	1.009838	11.127614	0.189603	0.094740	11.006874	0.093460	0.094473	9.370948	2.623381	2.624317	29.500000	7.460000	34.673685
3032.599455	1.009838	24.657943	1.009838	11.129084	0.190022	0.094734	11.014459	0.092766	0.094439	9.371218	2.624486	2.624360	29.500000	7.460000	34.673685
3038.599798	1.009838	24.657870	1.009838	11.130499	0.188767	0.094727	11.022396	0.093121	0.094403	9.371612	2.625827	2.624432	29.500000	7.460000	34.673685
3044.599141	1.009838	24.657673	1.009838	11.133427	0.188404	0.094714	11.029437	0.093942	0.094371	9.372161	2.625196	2.624520	29.500000	7.460000	34.673685
3050.599484	1.009838	24.657669	1.009838	11.133462	0.188104	0.094714	11.038359	0.094391	0.094331	9.372396	2.622197	2.624573	29.500000	7.460000	34.673685
3056.599828	1.009838	24.657668	1.009838	11.133593	0.189367	0.094713	11.045902	0.094731	0.094297	9.372343	2.620935	2.624559	29.500000	7.460000	34.673685
3062.599171	1.009838	24.657638	1.009838	11.133653	0.189501	0.094713	11.053401	0.093697	0.094263	9.372303	2.623302	2.624549	29.500000	7.460000	34.673685
3068.599514	1.009838	24.657420	1.009838	11.137442	0.187426	0.094696	11.059540	0.093847	0.094236	9.372512	2.623381	2.624551	29.500000	7.460000	34.673685
3074.599857	1.009838	24.657390	1.009838	11.137618	0.188996	0.094695	11.067266	0.094305	0.094201	9.372615	2.622118	2.624572	29.500000	7.460000	34.673685
3080.599200	1.009838	24.657213	1.009838	11.139962	0.189564	0.094685	11.073817	0.093902	0.094172	9.372783	2.623381	2.624581	29.500000	7.460000	34.673685
3086.599544	1.009838	24.657019	1.009838	11.142930	0.188562	0.094671	11.079283	0.093389	0.094147	9.372865	2.623302	2.624563	29.500000	7.460000	34.673685
3092.599887	1.009838	24.656974	1.009838	11.143577	0.188333	0.094668	11.085241	0.095141	0.094120	9.372870	2.624486	2.624557	29.500000	7.460000	34.673685
3098.599230	1.009838	24.657047	1.009838	11.142521	0.188546	0.094673	11.091554	0.093587	0.094092	9.372770	2.625749	2.624548	29.500000	7.460000	34.673685
3104.599573	1.009838	24.657039	1.009838	11.142638	0.188436	0.094673	11.098593	0.093673	0.094061	9.372854	2.624486	2.624565	29.500000	7.460000	34.673685
3110.599916	1.009838	24.656768	1.009838	11.146566	0.188412	0.094655	11.101771	0.093658	0.094046	9.373057	2.623302	2.624563	29.500000	7.460000	34.673685
3116.599259	1.009838	24.656744	1.009838	11.146905	0.189327	0.094653	11.105741	0.094612	0.094029	9.373125	2.622592	2.624574	29.500000	7.460000	34.673685
3122.599603	1.009838	24.656950	1.009838	11.143925	0.189193	0.094667	11.111409	0.093452	0.094003	9.372866	2.623302	2.624551	29.500000	7.460000	34.673685
3128.599946	1.009838	24.657020	1.009838	11.142912	0.189446	0.094671	11.115949	0.094178	0.093983	9.372616	2.622118	2.624507	29.500000	7.460000	34.673685
3134.599289	1.009838	24.657028	1.009838	11.142787	0.188167	0.094672	11.117863	0.093366	0.093974	9.372325	2.622118	2.624444	29.500000	7.460000	34.673685
3140.599632	1.009838	24.656933	1.009838	11.144165	0.190314	0.094666	11.118117	0.094494	0.093973	9.372291	2.622118	2.624419	29.500000	7.460000	34.673685
3146.599976	1.009838	24.656926	1.009838	11.144277	0.187797	0.094665	11.119129	0.094115	0.093969	9.372110	2.620935	2.624377	29.500000	7.460000	34.673685
3152.599319	1.009838	24.657001	1.009838	11.143181	0.189493	0.094670	11.120525	0.093460	0.093962	9.371870	2.619672	2.624336	29.500000	7.460000	34.673685
3158.599662	1.009838	24.657046	1.009838	11.142527	0.190156	0.094673	11.122904	0.094021	0.093952	9.371472	2.619672	2.624253	29.500000	7.460000	34.673685
3164.600005	1.009838	24.657151	1.009838	11.141010	0.188451	0.094680	11.123778	0.093665	0.093948	9.370873	2.620935	2.624137	29.500000	7.460000	34.673685
3170.601348	1.009838	24.657167	1.009838	11.140778	0.187875	0.094681	11.123383	0.094399	0.093950	9.370327	2.622118	2.624017	29.500000	7.460000	34.673685
3176.599691	1.009838	24.657022	1.009838	11.142876	0.188988	0.094671	11.122642	0.094044	0.093953	9.369938	2.621014	2.623904	29.500000	7.460000	34.673685
3182.600035	1.009838	24.657079	1.009838	11.142051	0.188799	0.094675	11.121807	0.095149	0.093957	9.369372	2.619593	2.623786	29.500000	7.460000	34.673685
3188.599378	1.009838	24.657009	1.009838	11.143066	0.188199	0.094671	11.119344	0.093910	0.093968	9.368715	2.618646	2.623625	29.500000	7.460000	34.673685
3194.599721	1.009838	24.656922	1.009838	11.144332	0.188562	0.094665	11.116026	0.094817	0.093982	9.368097	2.618331	2.623471	29.500000	7.460000	34.673685
3200.600064	1.009838	24.656714	1.009838	11.147340	0.189106	0.094651	11.111148	0.095251	0.094004	9.367552	2.618331	2.623312	29.500000	7.460000	34.673685
3206.599407	1.009838	24.656622	1.009838	11.148683	0.189264	0.094645	11.107632	0.093792	0.094020	9.366895	2.617147	2.623147	29.500000	7.460000	34.673685
3212.599751	1.009838	24.656490	1.009838	11.150596	0.187954	0.094637	11.103412	0.093610	0.094039	9.366117	2.616989	2.622949	29.500000	7.460000	34.673685
3218.599093	1.009838	24.656514	1.009838	11.150244	0.189659	0.094638	11.099964	0.093815	0.094054	9.365131	2.617068	2.622732	29.500000	7.460000	34.673685
3224.599437	1.009838	24.656557	1.009838	11.149614	0.190519	0.094641	11.095726	0.094415	0.094073	9.364405	2.618252	2.622577	29.500000	7.460000	34.673685
3230.599780	1.009838	24.656761	1.009838	11.146657	0.188720	0.094654	11.092183	0.094352	0.094089	9.363838	2.618252	2.622486	29.500000	7.460000	34.673685
3236.599123	1.009838	24.656898	1.009838	11.144677	0.190053	0.094663	11.089068	0.094526	0.094103	9.363194	2.618173	2.622364	29.500000	7.460000	34.673685
3242.599466	1.009838	24.657013	1.009838	11.143017	0.188996	0.094671	11.085222	0.095283	0.094121	9.362453	2.615805	2.622216	29.500000	7.460000	34.673685
3248.599810	1.009838	24.657019	1.009838	11.142928	0.187702	0.094671	11.079403	0.093902	0.094147	9.361538	2.616516	2.622012	29.500000	7.460000	34.673685
3254.599153	1.009838	24.656985	1.009838	11.143413	0.190495	0.094669	11.072934	0.093957	0.094176	9.360674	2.615805	2.621812	29.500000	7.460000	34.673685
3260.599496	1.009838	24.657061	1.009838	11.142318	0.188680	0.094674	11.066679	0.095038	0.094204	9.359845	2.614464	2.621638	29.500000	7.460000	34.673685
3266.599839	1.009838	24.656967	1.009838	11.143682	0.188877	0.094668	11.059924	0.094652	0.094234	9.359078	2.614543	2.621449	29.500000	7.460000	34.673685
3272.599182	1.009838	24.656672	1.009838	11.147947	0.190014	0.094649	11.051372	0.095125	0.094273	9.358398	2.615884	2.621244	29.500000	7.460000	34.673685
3278.599525	1.009838	24.656476	1.009838	11.150766	0.188380	0.094636	11.042964	0.095078	0.094310	9.357663	2.614543	2.621045	29.500000	7.460000	34.673685
3284.599869	1.009838	24.656531	1.009838	11.149975	0.191142	0.094639	11.038016	0.093523	0.094333	9.356738	2.614464	2.620847	29.500000	7.460000	34.673685
3290.599212	1.009838	24.656498	1.009838	11.150266	0.189162	0.094638	11.032509	0.094699	0.094357	9.355933	2.615805	2.620662	29.500000	7.460000	34.673685
3296.599555	1.009838	24.656367	1.009838	11.152436	0.188325	0.094628	11.026006	0.094518	0.094387	9.355268	2.614543	2.620486	29.500000	7.460000	34.673685
3302.599898	1.009838	24.656135	1.009838	11.155835	0.189690	0.094613	11.018666	0.095291	0.094420	9.354558	2.614385	2.620285	29.500000	7.460000	34.673685
3308.599241	1.009838	24.656037	1.009838	11.157243	0.190306	0.094607	11.011859	0.095772	0.094450	9.353768	2.615884	2.620091	29.500000	7.460000	34.673685
3314.599585	1.009838	24.655891	1.009838	11.158981	0.190100	0.094599	11.006475	0.094060	0.094475	9.353317	2.617147	2.619969	29.500000	7.460000	34.673685
3320.599928	1.009838	24.656055	1.009838	11.156768	0.190669	0.094609	11.001777	0.094770	0.094496	9.352699	2.617541	2.619857	29.500000	7.460000	34.673685
3326.599271	1.009838	24.656082	1.009838	11.156656	0.189051	0.094609	10.995663	0.094723	0.094523	9.352098	2.615805	2.619722	29.500000	7.460000	34.673685
3332.599614	1.009838	24.656095	1.009838	11.156468	0.189635	0.094610	10.990321	0.095228	0.094547	9.351298	2.614464	2.619547	29.500000	7.460000	34.673685
3338.599957	1.009838	24.656200	1.009838	11.155199	0.189690	0.094616	10.985721	0.094423	0.094568	9.350232	2.613675	2.619323	29.500000	7.460000	34.673685
3344.599300	1.009838	24.656284	1.009838	11.153909	0.188893	0.094622	10.981352	0.095591	0.094588	9.349004	2.611939	2.619062	29.500000	7.460000	34.673685
3350.599644	1.009838	24.656436	1.009838	11.151472	0.188704	0.094633	10.976332	0.094028	0.094611	9.348001	2.614464	2.618866	29.500000	7.460000	34.673685
3356.599987	1.009838	24.656530	1.009838	11.150013	0.189304	0.094639	10.971557	0.094581	0.094632	9.347439	2.617226	2.618757	29.500000	7.460000	34.673685
3362.599330	1.009838	24.656568	1.009838	11.149355	0.189619	0.094642	10.966638	0.095370	0.094654	9.346859	2.614464	2.618634	29.500000	7.460000	34.673685
3368.599673	1.009838	24.656750	1.009838	11.146734	0.188996	0.094654	10.963397	0.094589	0.094669	9.345934	2.614464	2.618458	29.500000	7.460000	34.673685
3374.600016	1.009838	24.656694	1.009838	11.147618	0.189248	0.094650	10.958405	0.094691	0.094692	9.345240	2.615805	2.618291	29.500000	7.460000	34.673685
3380.599360	1.009838	24.656646	1.009838	11.148375	0.189162	0.094647	10.954128	0.095496	0.094711	9.344638	2.614543	2.618146	29.500000	7.460000	34.673685
3386.599702	1.009838	24.656455	1.009838	11.151131	0.189027	0.094634	10.947782	0.094391	0.094740	9.344010	2.615805	2.617972	29.500000	7.460000	34.673685
3392.600046	1.009838	24.656328	1.009838	11.152728	0.189690	0.094627	10.942275	0.094762	0.094764	9.343332	2.615805	2.617800	29.500000	7.460000	34.673685
3398.599389	1.009838	24.656325	1.009838	11.152928	0.189588	0.094626	10.938516	0.094620	0.094781	9.342593	2.615884	2.617631	29.500000	7.460000	34.673685
3404.599732	1.009838	24.656475	1.009838	11.150558	0.191158	0.094637	10.936044	0.095299	0.094793	9.341601	2.615805	2.617436	29.500000	7.460000	34.673685
3410.599075	1.009838	24.656689	1.009838	11.147336	0.190542	0.094651	10.934617	0.094565	0.094799	9.340731	2.615726	2.617280	29.500000	7.460000	34.673685
3416.599419	1.009838	24.656804	1.009838	11.145927	0.189540	0.094658	10.931550	0.095259	0.094813	9.339982	2.614543	2.617128	29.500000	7.460000	34.673685
3422.599761	1.009838	24.656900	1.009838	11.144911	0.188893	0.094662	10.928313	0.095370	0.094828	9.339160	2.614464	2.616955	29.500000	7.460000	34.673685
3428.599105	1.009838	24.657102	1.009838	11.141579	0.189887	0.094677	10.926622	0.094794	0.094835	9.338333	2.615805	2.616809	29.500000	7.460000	34.673685
3434.599448	1.009838	24.657027	1.009838	11.142814	0.189730	0.094672	10.922579	0.094628	0.094854	9.337899	2.615805	2.616697	29.500000	7.460000	34.673685
3440.599792	1.009838	24.656915	1.009838	11.144495	0.188751	0.094664	10.918869	0.094541	0.094870	9.337379	2.614622	2.616560	29.500000	7.460000	34.673685
3446.599134	1.009838	24.657004	1.009838	11.143137	0.189848	0.094670	10.916427	0.096033	0.094881	9.336657	2.612017	2.616411	29.500000	7.460000	34.673685
3452.599478	1.009838	24.657153	1.009838	11.140983	0.189288	0.094680	10.915395	0.095141	0.094886	9.335867	2.613359	2.616260	29.500000	7.460000	34.673685
3458.599821	1.009838	24.657200	1.009838	11.140303	0.189106	0.094683	10.912015	0.095299	0.094901	9.335310	2.614543	2.616143	29.500000	7.460000	34.673685
3464.599164	1.009838	24.657225	1.009838	11.139936	0.189832	0.094685	10.908311	0.095496	0.094918	9.334797	2.614464	2.616032	29.500000	7.460000	34.673685
3470.599507	1.009838	24.657081	1.009838	11.142020	0.189477	0.094675	10.904304	0.095307	0.094936	9.334428	2.615726	2.615924	29.500000	7.460000	34.673685
3476.599850	1.009838	24.657136	1.009838	11.141227	0.189414	0.094679	10.901382	0.094589	0.094950	9.333849	2.615884	2.615803	29.500000	7.460000	34.673685
3482.599194	1.009838	24.656968	1.009838	11.143657	0.190266	0.094668	10.896825	0.095425	0.094970	9.333581	2.616516	2.615714	29.500000	7.460000	34.673685
3488.599537	1.009838	24.656836	1.009838	11.145583	0.189501	0.094659	10.893396	0.095378	0.094986	9.333455	2.615884	2.615663	29.500000	7.460000	34.673685
3494.599880	1.009838	24.656714	1.009838	11.147344	0.189225	0.094651	10.889400	0.095417	0.095004	9.333301	2.615884	2.615607	29.500000	7.460000	34.673685
3500.599223	1.009838	24.656477	1.009838	11.150780	0.190187	0.094636	10.885870	0.095070	0.095020	9.333271	2.615884	2.615558	29.500000	7.460000	34.673685
3506.599566	1.009838	24.656367	1.009838	11.152378	0.188933	0.094629	10.882590	0.095212	0.095035	9.333155	2.615805	2.615513	29.500000	7.460000	34.673685
3512.599909	1.009838	24.656285	1.009838	11.153566	0.189240	0.094623	10.879976	0.094604	0.095047	9.333110	2.616200	2.615489	29.500000	7.460000	34.673685
3518.599253	1.009838	24.656131	1.009838	11.155791	0.189785	0.094613	10.875338	0.095078	0.095068	9.333032	2.614622	2.615444	29.500000	7.460000	34.673685
3524.599596	1.009838	24.656142	1.009838	11.155641	0.190637	0.094614	10.872549	0.095109	0.095080	9.332696	2.614464	2.615370	29.500000	7.460000	34.673685
3530.599939	1.009838	24.656101	1.009838	11.156222	0.189280	0.094611	10.867668	0.096080	0.095102	9.332393	2.614543	2.615295	29.500000	7.460000	34.673685
3536.599282	1.009838	24.656221	1.009838	11.154494	0.189627	0.094619	10.865236	0.096372	0.095113	9.332144	2.615805	2.615260	29.500000	7.460000	34.673685
3542.599625	1.009838	24.656267	1.009838	11.153824	0.190661	0.094622	10.862878	0.094604	0.095124	9.332039	2.617068	2.615246	29.500000	7.460000	34.673685
3548.599968	1.009838	24.656221	1.009838	11.154482	0.190274	0.094619	10.858607	0.095693	0.095144	9.332207	2.615884	2.615275	29.500000	7.460000	34.673685
3554.599312	1.009838	24.655943	1.009838	11.158517	0.189572	0.094601	10.853252	0.094920	0.095168	9.332395	2.614543	2.615268	29.500000	7.460000	34.673685
3560.599655	1.009838	24.655815	1.009838	11.160372	0.190527	0.094592	10.849601	0.096206	0.095184	9.332424	2.613280	2.615252	29.500000	7.460000	34.673685
3566.599998	1.009838	24.655765	1.009838	11.161097	0.190732	0.094589	10.847879	0.095236	0.095192	9.332346	2.613201	2.615226	29.500000	7.460000	34.673685
3572.599341	1.009838	24.655825	1.009838	11.160236	0.189974	0.094593	10.846545	0.095101	0.095198	9.332167	2.614464	2.615196	29.500000	7.460000	34.673685
3578.599684	1.009838	24.655845	1.009838	11.159942	0.190858	0.094594	10.844721	0.094810	0.095207	9.332166	2.617147	2.615201	29.500000	7.460000	34.673685
3584.600028	1.009838	24.655809	1.009838	11.160461	0.189461	0.094592	10.841070	0.094817	0.095223	9.332369	2.615805	2.615240	29.500000	7.460000	34.673685
3590.599370	1.009838	24.655810	1.009838	11.160448	0.190290	0.094592	10.838166	0.095378	0.095236	9.332493	2.617068	2.615268	29.500000	7.460000	34.673685
3596.599714	1.009838	24.655725	1.009838	11.161679	0.190874	0.094587	10.834967	0.095535	0.095251	9.332586	2.614464	2.615274	29.500000	7.460000	34.673685
3602.600057	1.009838	24.655541	1.009838	11.164338	0.191355	0.094575	10.830372	0.095023	0.095272	9.332733	2.614937	2.615275	29.500000	7.460000	34.673685
3608.599401	1.009838	24.655495	1.009838	11.165010	0.189714	0.094572	10.827983	0.095891	0.095283	9.332760	2.614543	2.615272	29.500000	7.460000	34.673685
3614.599743	1.009838	24.655578	1.009838	11.163806	0.189596	0.094577	10.825890	0.095315	0.095292	9.332504	2.615805	2.615229	29.500000	7.460000	34.673685
3620.599087	1.009838	24.655603	1.009838	11.163449	0.190408	0.094579	10.823710	0.095030	0.095302	9.332401	2.615805	2.615210	29.500000	7.460000	34.673685
3626.599430	1.009838	24.655502	1.009838	11.164917	0.190022	0.094572	10.820456	0.095054	0.095317	9.332495	2.617147	2.615214	29.500000	7.460000	34.673685
3632.599773	1.009838	24.655482	1.009838	11.165194	0.190266	0.094571	10.817772	0.095654	0.095329	9.332676	2.617068	2.615252	29.500000	7.460000	34.673685
3638.599116	1.009838	24.655501	1.009838	11.164926	0.190527	0.094572	10.814317	0.095251	0.095345	9.332965	2.615884	2.615320	29.500000	7.460000	34.673685
3644.599459	1.009838	24.655453	1.009838	11.165616	0.190495	0.094569	10.811676	0.095109	0.095357	9.333279	2.614543	2.615383	29.500000	7.460000	34.673685
3650.599802	1.009838	24.655639	1.009838	11.162929	0.190321	0.094581	10.810050	0.095488	0.095364	9.333270	2.615805	2.615413	29.500000	7.460000	34.673685
3656.599146	1.009838	24.655668	1.009838	11.162502	0.189596	0.094583	10.806029	0.095843	0.095383	9.333174	2.614622	2.615395	29.500000	7.460000	34.673685
3662.599489	1.009838	24.655775	1.009838	11.160955	0.190621	0.094590	10.802761	0.094739	0.095398	9.332979	2.613280	2.615370	29.500000	7.460000	34.673685
3668.599832	1.009838	24.655822	1.009838	11.160269	0.189801	0.094593	10.800345	0.095094	0.095409	9.332918	2.614622	2.615365	29.500000	7.460000	34.673685
3674.599175	1.009838	24.655711	1.009838	11.161877	0.190282	0.094586	10.797764	0.095346	0.095420	9.333064	2.615884	2.615379	29.500000	7.460000	34.673685
3680.599518	1.009838	24.655617	1.009838	11.163248	0.190708	0.094580	10.796426	0.095464	0.095426	9.333141	2.615963	2.615380	29.500000	7.460000	34.673685
3686.599862	1.009838	24.655530	1.009838	11.164600	0.190795	0.094573	10.793622	0.096782	0.095439	9.333421	2.617147	2.615427	29.500000	7.460000	34.673685
3692.599205	1.009838	24.655458	1.009838	11.165554	0.189501	0.094569	10.790801	0.094478	0.095452	9.333597	2.617226	2.615455	29.500000	7.460000	34.673685
3698.599548	1.009838	24.655552	1.009838	11.164181	0.190085	0.094575	10.789841	0.095906	0.095456	9.333550	2.617147	2.615461	29.500000	7.460000	34.673685
3704.599891	1.009838	24.655724	1.009838	11.161696	0.190006	0.094587	10.788602	0.096648	0.095462	9.333499	2.616279	2.615479	29.500000	7.460000	34.673685
3710.599234	1.009838	24.655613	1.009838	11.163307	0.190479	0.094579	10.785251	0.095086	0.095477	9.333504	2.614543	2.615460	29.500000	7.460000	34.673685
3716.599577	1.009838	24.655447	1.009838	11.165704	0.191608	0.094568	10.780190	0.095196	0.095500	9.333675	2.617147	2.615471	29.500000	7.460000	34.673685
3722.599921	1.009838	24.655195	1.009838	11.169358	0.189233	0.094552	10.774699	0.095480	0.095526	9.334009	2.615726	2.615501	29.500000	7.460000	34.673685
3728.599264	1.009838	24.654987	1.009838	11.172366	0.190700	0.094538	10.771080	0.095157	0.095542	9.334172	2.614779	2.615501	29.500000	7.460000	34.673685
3734.599607	1.009838	24.654912	1.009838	11.173744	0.189895	0.094532	10.769260	0.095393	0.095550	9.334117	2.613359	2.615471	29.500000	7.460000	34.673685
3740.599950	1.009838	24.655001	1.009838	11.172366	0.189667	0.094538	10.767870	0.095630	0.095557	9.333870	2.613280	2.615433	29.500000	7.460000	34.673685
3746.599293	1.009838	24.655038	1.009838	11.171729	0.190542	0.094541	10.765975	0.095875	0.095565	9.333866	2.615095	2.615441	29.500000	7.460000	34.673685
3752.599637	1.009838	24.655282	1.009838	11.167877	0.190740	0.094559	10.765156	0.095614	0.095569	9.333756	2.614543	2.615462	29.500000	7.460000	34.673685
3758.599980	1.009838	24.655281	1.009838	11.168078	0.190724	0.094558	10.763183	0.095827	0.095578	9.333989	2.617305	2.615512	29.500000	7.460000	34.673685
3764.599323	1.009838	24.655093	1.009838	11.171043	0.189998	0.094544	10.759768	0.096088	0.095594	9.334380	2.617147	2.615565	29.500000	7.460000	34.673685
3770.599666	1.009838	24.654886	1.009838	11.173948	0.190519	0.094531	10.755652	0.095851	0.095612	9.334539	2.614622	2.615564	29.500000	7.460000	34.673685
3776.600009	1.009838	24.655046	1.009838	11.171457	0.189990	0.094542	10.755704	0.095212	0.095612	9.334371	2.615884	2.615557	29.500000	7.460000	34.673685
3782.599352	1.009838	24.655158	1.009838	11.169653	0.190171	0.094551	10.755439	0.095867	0.095613	9.334277	2.615805	2.615557	29.500000	7.460000	34.673685
3788.599696	1.009838	24.655160	1.009838	11.169933	0.190834	0.094549	10.751921	0.095472	0.095629	9.334176	2.614622	2.615531	29.500000	7.460000	34.673685
3794.600039	1.009838	24.655129	1.009838	11.170185	0.191024	0.094548	10.749061	0.096474	0.095643	9.334098	2.614622	2.615510	29.500000	7.460000	34.673685
3800.599382	1.009838	24.655111	1.009838	11.170736	0.190511	0.094546	10.746209	0.095236	0.095656	9.334074	2.615884	2.615499	29.500000	7.460000	34.673685
3806.599725	1.009838	24.655086	1.009838	11.170813	0.190637	0.094545	10.745127	0.094952	0.095661	9.334164	2.615963	2.615518	29.500000	7.460000	34.673685
3812.599068	1.009838	24.655002	1.009838	11.172300	0.190345	0.094539	10.743518	0.095528	0.095668	9.334282	2.617147	2.615527	29.500000	7.460000	34.673685
3818.599411	1.009838	24.654956	1.009838	11.173164	0.189083	0.094535	10.741400	0.095267	0.095678	9.334496	2.615805	2.615565	29.500000	7.460000	34.673685
3824.599755	1.009838	24.654898	1.009838	11.173734	0.190164	0.094532	10.737655	0.095922	0.095695	9.334697	2.616989	2.615603	29.500000	7.460000	34.673685
3830.599098	1.009838	24.654899	1.009838	11.173382	0.189824	0.094534	10.734839	0.096190	0.095708	9.334800	2.615805	2.615630	29.500000	7.460000	34.673685
3836.599441	1.009838	24.654976	1.009838	11.172276	0.190779	0.094539	10.734076	0.096766	0.095711	9.334739	2.615805	2.615630	29.500000	7.460000	34.673685
3842.599784	1.009838	24.654867	1.009838	11.174152	0.190085	0.094530	10.732313	0.095062	0.095719	9.334751	2.615884	2.615610	29.500000	7.460000	34.673685
3848.599127	1.009838	24.654841	1.009838	11.174571	0.189193	0.094528	10.730808	0.095173	0.095726	9.334642	2.617384	2.615580	29.500000	7.460000	34.673685
3854.599471	1.009838	24.654931	1.009838	11.172961	0.190519	0.094536	10.730120	0.095386	0.095729	9.334700	2.617147	2.615613	29.500000	7.460000	34.673685
3860.599814	1.009838	24.655108	1.009838	11.170847	0.190392	0.094545	10.729312	0.095670	0.095733	9.334755	2.617068	2.615651	29.500000	7.460000	34.673685
3866.599157	1.009838	24.655294	1.009838	11.168169	0.190866	0.094557	10.729083	0.095788	0.095734	9.334946	2.617147	2.615726	29.500000	7.460000	34.673685
3872.599500	1.009838	24.655475	1.009838	11.165249	0.189935	0.094570	10.728525	0.095922	0.095736	9.335002	2.617068	2.615774	29.500000	7.460000	34.673685
3878.599844	1.009838	24.655775	1.009838	11.160867	0.189698	0.094590	10.728884	0.095520	0.095735	9.334889	2.617384	2.615802	29.500000	7.460000	34.673685
3884.599186	1.009838	24.656000	1.009838	11.157628	0.190416	0.094605	10.726817	0.095772	0.095744	9.334772	2.617147	2.615814	29.500000	7.460000	34.673685
3890.599530	1.009838	24.655997	1.009838	11.157670	0.190613	0.094605	10.723450	0.096443	0.095760	9.334864	2.617068	2.615835	29.500000	7.460000	34.673685
3896.599873	1.009838	24.656098	1.009838	11.156244	0.190598	0.094611	10.720943	0.095646	0.095771	9.334984	2.619593	2.615879	29.500000	7.460000	34.673685
3902.599216	1.009838	24.656032	1.009838	11.157359	0.190282	0.094606	10.717733	0.095938	0.095786	9.335374	2.617226	2.615953	29.500000	7.460000	34.673685
3908.599559	1.009838	24.656318	1.009838	11.153083	0.190913	0.094625	10.716859	0.095827	0.095790	9.335369	2.617226	2.616004	29.500000	7.460000	34.673685
3914.599903	1.009838	24.656452	1.009838	11.151140	0.190669	0.094634	10.714867	0.096135	0.095799	9.335350	2.614464	2.616022	29.500000	7.460000	34.673685
3920.599246	1.009838	24.656712	1.009838	11.147377	0.190463	0.094651	10.713211	0.095551	0.095807	9.335010	2.614543	2.615991	29.500000	7.460000	34.673685
3926.599589	1.009838	24.656522	1.009838	11.150132	0.190187	0.094639	10.708537	0.095764	0.095828	9.334984	2.614543	2.615952	29.500000	7.460000	34.673685
3932.599932	1.009838	24.656569	1.009838	11.149444	0.191363	0.094642	10.705034	0.096498	0.095844	9.334811	2.616121	2.615922	29.500000	7.460000	34.673685
3938.599275	1.009838	24.656702	1.009838	11.147515	0.190716	0.094651	10.704378	0.095962	0.095847	9.334718	2.617226	2.615925	29.500000	7.460000	34.673685
3944.599618	1.009838	24.656962	1.009838	11.143755	0.190100	0.094667	10.704104	0.095851	0.095848	9.334652	2.617226	2.615956	29.500000	7.460000	34.673685
3950.599962	1.009838	24.657196	1.009838	11.140365	0.189532	0.094683	10.704832	0.095977	0.095845	9.334608	2.617147	2.615986	29.500000	7.460000	34.673685
3956.599305	1.009838	24.657294	1.009838	11.138942	0.191339	0.094689	10.703539	0.096372	0.095851	9.334625	2.615884	2.616007	29.500000	7.460000	34.673685
3962.599648	1.009838	24.657404	1.009838	11.137344	0.190574	0.094696	10.701984	0.095670	0.095858	9.334786	2.617068	2.616064	29.500000	7.460000	34.673685
3968.599991	1.009838	24.657639	1.009838	11.133943	0.189540	0.094712	10.700835	0.096056	0.095863	9.334906	2.618331	2.616132	29.500000	7.460000	34.673685
3974.599334	1.009838	24.657904	1.009838	11.130105	0.190621	0.094729	10.700985	0.096711	0.095862	9.334882	2.617068	2.616172	29.500000	7.460000	34.673685
3980.599678	1.009838	24.657998	1.009838	11.128743	0.190890	0.094735	10.699027	0.096798	0.095871	9.334922	2.617147	2.616198	29.500000	7.460000	34.673685
3986.600021	1.009838	24.658126	1.009838	11.126878	0.190400	0.094744	10.697501	0.095457	0.095878	9.334737	2.615805	2.616178	29.500000	7.460000	34.673685
3992.599364	1.009838	24.658474	1.009838	11.121842	0.191434	0.094767	10.695884	0.096253	0.095886	9.334356	2.617068	2.616153	29.500000	7.460000	34.673685
3998.599707	1.009838	24.658435	1.009838	11.122411	0.190290	0.094764	10.692568	0.096585	0.095901	9.334391	2.617068	2.616154	29.500000	7.460000	34.673685
4004.600050	1.009838	24.658365	1.009838	11.123412	0.191323	0.094759	10.688934	0.095030	0.095918	9.334480	2.617699	2.616163	29.500000	7.460000	34.673685
4010.599393	1.009838	24.658438	1.009838	11.122367	0.190771	0.094764	10.687230	0.095764	0.095926	9.334570	2.615884	2.616195	29.500000	7.460000	34.673685
4016.599737	1.009838	24.658518	1.009838	11.121197	0.190282	0.094769	10.686156	0.095496	0.095930	9.334496	2.615726	2.616192	29.500000	7.460000	34.673685
4022.599080	1.009838	24.658532	1.009838	11.120996	0.190645	0.094770	10.685720	0.095346	0.095932	9.334465	2.615805	2.616188	29.500000	7.460000	34.673685
4028.599423	1.009838	24.658393	1.009838	11.123011	0.190700	0.094761	10.682028	0.096467	0.095949	9.334613	2.615805	2.616197	29.500000	7.460000	34.673685
4034.599766	1.009838	24.658395	1.009838	11.122980	0.190850	0.094761	10.681608	0.096364	0.095951	9.334819	2.617147	2.616245	29.500000	7.460000	34.673685
4040.599109	1.009838	24.658454	1.009838	11.122128	0.190716	0.094765	10.680004	0.095709	0.095959	9.335148	2.618331	2.616329	29.500000	7.460000	34.673685
4046.599452	1.009838	24.658499	1.009838	11.121478	0.190913	0.094768	10.680337	0.095764	0.095957	9.335331	2.615805	2.616377	29.500000	7.460000	34.673685
4052.599796	1.009838	24.658702	1.009838	11.118538	0.191000	0.094781	10.680865	0.096324	0.095955	9.335329	2.614543	2.616412	29.500000	7.460000	34.673685
4058.599139	1.009838	24.658660	1.009838	11.119147	0.190558	0.094779	10.678460	0.095125	0.095966	9.335224	2.614464	2.616380	29.500000	7.460000	34.673685
4064.599482	1.009838	24.658763	1.009838	11.117659	0.190266	0.094785	10.677450	0.096916	0.095970	9.334928	2.614464	2.616331	29.500000	7.460000	34.673685
4070.599825	1.009838	24.658780	1.009838	11.117412	0.190148	0.094787	10.676730	0.096506	0.095974	9.334904	2.615963	2.616330	29.500000	7.460000	34.673685
4076.599168	1.009838	24.658941	1.009838	11.115070	0.190574	0.094797	10.675907	0.096119	0.095977	9.334909	2.618331	2.616360	29.500000	7.460000	34.673685
4082.599512	1.009838	24.659048	1.009838	11.113529	0.190842	0.094804	10.675424	0.096522	0.095980	9.335045	2.618331	2.616409	29.500000	7.460000	34.673685
4088.599854	1.009838	24.659180	1.009838	11.111615	0.191647	0.094813	10.674522	0.096916	0.095984	9.335196	2.617068	2.616466	29.500000	7.460000	34.673685
4094.599198	1.009838	24.659255	1.009838	11.110526	0.190992	0.094818	10.673267	0.096214	0.095990	9.335338	2.615805	2.616511	29.500000	7.460000	34.673685
4100.599541	1.009838	24.659094	1.009838	11.112859	0.191442	0.094807	10.669513	0.096072	0.096007	9.335520	2.615726	2.616523	29.500000	7.460000	34.673685
4106.599885	1.009838	24.659211	1.009838	11.111157	0.190890	0.094815	10.667579	0.095922	0.096016	9.335348	2.615805	2.616505	29.500000	7.460000	34.673685
4112.599227	1.009838	24.659256	1.009838	11.110516	0.190771	0.094818	10.665055	0.095827	0.096027	9.335234	2.614622	2.616487	29.500000	7.460000	34.673685
4118.599571	1.009838	24.659183	1.009838	11.111578	0.190724	0.094813	10.661455	0.096190	0.096044	9.335174	2.615884	2.616461	29.500000	7.460000	34.673685
4124.599914	1.009838	24.659292	1.009838	11.110237	0.190605	0.094819	10.659949	0.097043	0.096051	9.335136	2.617147	2.616469	29.500000	7.460000	34.673685
4130.599257	1.009838	24.659404	1.009838	11.108584	0.191189	0.094826	10.659322	0.096467	0.096054	9.335007	2.614622	2.616459	29.500000	7.460000	34.673685
4136.599600	1.009838	24.659296	1.009838	11.109807	0.191221	0.094821	10.655773	0.096009	0.096070	9.335023	2.615805	2.616449	29.500000	7.460000	34.673685
4142.599943	1.009838	24.659184	1.009838	11.111749	0.191032	0.094812	10.653540	0.096277	0.096080	9.335206	2.617541	2.616467	29.500000	7.460000	34.673685
4148.599287	1.009838	24.659214	1.009838	11.111243	0.191118	0.094814	10.652611	0.096640	0.096084	9.335402	2.618252	2.616517	29.500000	7.460000	34.673685
4154.599630	1.009838	24.659297	1.009838	11.109934	0.190440	0.094820	10.651631	0.096119	0.096089	9.335440	2.618331	2.616541	29.500000	7.460000	34.673685
4160.599973	1.009838	24.659215	1.009838	11.111129	0.190629	0.094815	10.648744	0.096253	0.096102	9.335682	2.618409	2.616581	29.500000	7.460000	34.673685
4166.599316	1.009838	24.659212	1.009838	11.110891	0.191805	0.094816	10.647123	0.095606	0.096110	9.335786	2.618331	2.616607	29.500000	7.460000	34.673685
4172.599659	1.009838	24.659244	1.009838	11.110723	0.192041	0.094817	10.644619	0.096829	0.096121	9.335950	2.618331	2.616647	29.500000	7.460000	34.673685
4178.600002	1.009838	24.659272	1.009838	11.110034	0.191071	0.094820	10.643724	0.095891	0.096125	9.336019	2.618331	2.616670	29.500000	7.460000	34.673685
4184.599346	1.009838	24.659399	1.009838	11.108466	0.191047	0.094827	10.641967	0.095614	0.096133	9.336044	2.618331	2.616695	29.500000	7.460000	34.673685
4190.599689	1.009838	24.659367	1.009838	11.109017	0.190069	0.094825	10.641455	0.096324	0.096136	9.336182	2.618725	2.616719	29.500000	7.460000	34.673685
4196.602032	1.009838	24.659344	1.009838	11.109375	0.191087	0.094823	10.638057	0.095378	0.096151	9.336212	2.618331	2.616721	29.500000	7.460000	34.673685
4202.599375	1.009838	24.659226	1.009838	11.110983	0.190976	0.094816	10.634995	0.096151	0.096165	9.336217	2.617541	2.616703	29.500000	7.460000	34.673685
4208.599718	1.009838	24.659194	1.009838	11.111515	0.189730	0.094813	10.633246	0.095449	0.096173	9.336298	2.618331	2.616715	29.500000	7.460000	34.673685
4214.600061	1.009838	24.659107	1.009838	11.112593	0.191095	0.094808	10.631623	0.096214	0.096181	9.336602	2.618409	2.616770	29.500000	7.460000	34.673685
4220.599405	1.009838	24.659159	1.009838	11.111841	0.190274	0.094812	10.631374	0.096522	0.096182	9.336896	2.618252	2.616845	29.500000	7.460000	34.673685
4226.599748	1.009838	24.659204	1.009838	11.111342	0.190850	0.094814	10.631108	0.096111	0.096183	9.337109	2.617068	2.616899	29.500000	7.460000	34.673685
4232.599091	1.009838	24.659091	1.009838	11.112992	0.191166	0.094807	10.628821	0.096971	0.096194	9.337424	2.618331	2.616950	29.500000	7.460000	34.673685
4238.599434	1.009838	24.659063	1.009838	11.113374	0.191300	0.094805	10.627941	0.096419	0.096198	9.337599	2.619672	2.616985	29.500000	7.460000	34.673685
4244.599777	1.009838	24.659039	1.009838	11.113747	0.190992	0.094803	10.626223	0.097311	0.096206	9.337792	2.618331	2.617024	29.500000	7.460000	34.673685
4250.599121	1.009838	24.658917	1.009838	11.115560	0.190321	0.094795	10.624992	0.096680	0.096211	9.338035	2.618409	2.617057	29.500000	7.460000	34.673685
4256.599464	1.009838	24.658920	1.009838	11.115425	0.190669	0.094796	10.623763	0.096096	0.096217	9.338221	2.618409	2.617100	29.500000	7.460000	34.673685
4262.599807	1.009838	24.659055	1.009838	11.113698	0.191387	0.094803	10.623833	0.096782	0.096217	9.338243	2.618331	2.617126	29.500000	7.460000	34.673685
4268.599150	1.009838	24.659019	1.009838	11.114479	0.189280	0.094800	10.623523	0.096648	0.096218	9.338312	2.617147	2.617132	29.500000	7.460000	34.673685
4274.599494	1.009838	24.658648	1.009838	11.119437	0.190621	0.094777	10.620917	0.097050	0.096230	9.338548	2.617147	2.617126	29.500000	7.460000	34.673685
4280.599836	1.009838	24.658563	1.009838	11.120551	0.190463	0.094772	10.618974	0.096269	0.096239	9.338614	2.617068	2.617127	29.500000	7.460000	34.673685
4286.599180	1.009838	24.658470	1.009838	11.121898	0.190400	0.094766	10.617856	0.096214	0.096244	9.338789	2.617147	2.617150	29.500000	7.460000	34.673685
4292.599523	1.009838	24.658342	1.009838	11.123751	0.191024	0.094758	10.616055	0.096940	0.096252	9.339064	2.618409	2.617190	29.500000	7.460000	34.673685
4298.599866	1.009838	24.658215	1.009838	11.125599	0.191142	0.094750	10.614706	0.096253	0.096259	9.339307	2.618252	2.617222	29.500000	7.460000	34.673685
4304.599209	1.009838	24.658238	1.009838	11.125257	0.190819	0.094751	10.615057	0.096293	0.096257	9.339396	2.618331	2.617246	29.500000	7.460000	34.673685
4310.599553	1.009838	24.658297	1.009838	11.124403	0.191276	0.094755	10.614637	0.096695	0.096259	9.339411	2.617068	2.617260	29.500000	7.460000	34.673685
4316.599895	1.009838	24.658246	1.009838	11.125146	0.190282	0.094752	10.613339	0.096538	0.096265	9.339567	2.617068	2.617286	29.500000	7.460000	34.673685
4322.599239	1.009838	24.658297	1.009838	11.124403	0.191686	0.094755	10.613305	0.095804	0.096265	9.339628	2.617147	2.617309	29.500000	7.460000	34.673685
4328.599582	1.009838	24.658292	1.009838	11.124471	0.190850	0.094755	10.611091	0.096324	0.096275	9.339850	2.618331	2.617358	29.500000	7.460000	34.673685
4334.599925	1.009838	24.658211	1.009838	11.125657	0.191663	0.094749	10.608392	0.096585	0.096288	9.340165	2.619041	2.617415	29.500000	7.460000	34.673685
4340.599268	1.009838	24.658238	1.009838	11.125258	0.191355	0.094751	10.607032	0.096711	0.096294	9.340262	2.618331	2.617441	29.500000	7.460000	34.673685
4346.599611	1.009838	24.658299	1.009838	11.124369	0.192002	0.094755	10.605251	0.096530	0.096302	9.340366	2.618409	2.617476	29.500000	7.460000	34.673685
4352.599955	1.009838	24.658306	1.009838	11.124276	0.191379	0.094756	10.603325	0.096419	0.096311	9.340613	2.618252	2.617533	29.500000	7.460000	34.673685
4358.599298	1.009838	24.658229	1.009838	11.125385	0.191024	0.094751	10.601657	0.096096	0.096319	9.341062	2.618409	2.617621	29.500000	7.460000	34.673685
4364.599641	1.009838	24.658212	1.009838	11.125636	0.190116	0.094749	10.600988	0.095985	0.096322	9.341399	2.618488	2.617693	29.500000	7.460000	34.673685
4370.599984	1.009838	24.658028	1.009838	11.128308	0.191347	0.094737	10.599266	0.096104	0.096330	9.341866	2.619672	2.617766	29.500000	7.460000	34.673685
4376.599328	1.009838	24.658036	1.009838	11.128193	0.190874	0.094738	10.596873	0.096632	0.096341	9.342109	2.619988	2.617821	29.500000	7.460000	34.673685
4382.599670	1.009838	24.658056	1.009838	11.127892	0.190100	0.094739	10.595870	0.095551	0.096345	9.342168	2.619751	2.617838	29.500000	7.460000	34.673685
4388.600014	1.009838	24.658051	1.009838	11.127976	0.191821	0.094739	10.594178	0.096664	0.096353	9.342443	2.621014	2.617900	29.500000	7.460000	34.673685
4394.599357	1.009838	24.658096	1.009838	11.127311	0.191410	0.094742	10.592733	0.095772	0.096360	9.342743	2.619751	2.617976	29.500000	7.460000	34.673685
4400.599700	1.009838	24.658373	1.009838	11.123307	0.192412	0.094760	10.593236	0.096380	0.096357	9.342858	2.619672	2.618050	29.500000	7.460000	34.673685
4406.600043	1.009838	24.658336	1.009838	11.123846	0.190976	0.094757	10.592290	0.096782	0.096362	9.343209	2.620303	2.618122	29.500000	7.460000	34.673685
4412.599387	1.009838	24.658311	1.009838	11.124200	0.191410	0.094756	10.590451	0.096743	0.096370	9.343605	2.619593	2.618207	29.500000	7.460000	34.673685
4418.599730	1.009838	24.658345	1.009838	11.123714	0.190661	0.094758	10.590065	0.096427	0.096372	9.343969	2.619593	2.618295	29.500000	7.460000	34.673685
4424.599073	1.009838	24.658577	1.009838	11.120341	0.192270	0.094773	10.589382	0.095859	0.096375	9.343996	2.618252	2.618341	29.500000	7.460000	34.673685
4430.599416	1.009838	24.658592	1.009838	11.120132	0.191363	0.094774	10.588009	0.097248	0.096382	9.344274	2.619593	2.618407	29.500000	7.460000	34.673685
4436.599759	1.009838	24.658709	1.009838	11.118435	0.191836	0.094782	10.585959	0.097129	0.096391	9.344594	2.619672	2.618499	29.500000	7.460000	34.673685
4442.599102	1.009838	24.658744	1.009838	11.117931	0.189753	0.094784	10.584668	0.097587	0.096397	9.344929	2.620935	2.618581	29.500000	7.460000	34.673685
4448.599445	1.009838	24.658806	1.009838	11.117027	0.191110	0.094788	10.583545	0.096530	0.096402	9.345116	2.621014	2.618633	29.500000	7.460000	34.673685
4454.599789	1.009838	24.658682	1.009838	11.118820	0.191663	0.094780	10.580567	0.096822	0.096416	9.345447	2.620935	2.618686	29.500000	7.460000	34.673685
4460.599132	1.009838	24.658646	1.009838	11.119352	0.191024	0.094778	10.578648	0.096285	0.096425	9.345681	2.619672	2.618732	29.500000	7.460000	34.673685
4466.599475	1.009838	24.658769	1.009838	11.117568	0.191387	0.094786	10.576966	0.097090	0.096432	9.345697	2.619830	2.618757	29.500000	7.460000	34.673685
4472.599818	1.009838	24.658826	1.009838	11.116742	0.190811	0.094790	10.575395	0.096514	0.096440	9.345766	2.619672	2.618783	29.500000	7.460000	34.673685
4478.599162	1.009838	24.658951	1.009838	11.114928	0.191008	0.094798	10.574545	0.096111	0.096444	9.345739	2.618331	2.618798	29.500000	7.460000	34.673685
4484.599504	1.009838	24.658963	1.009838	11.114754	0.192838	0.094799	10.572686	0.096680	0.096452	9.345812	2.619593	2.618817	29.500000	7.460000	34.673685
4490.599848	1.009838	24.658931	1.009838	11.115219	0.192065	0.094796	10.571066	0.096877	0.096460	9.345975	2.620935	2.618848	29.500000	7.460000	34.673685
4496.599191	1.009838	24.658947	1.009838	11.114982	0.191079	0.094798	10.569889	0.096680	0.096465	9.346067	2.618409	2.618871	29.500000	7.460000	34.673685
4502.599534	1.009838	24.658773	1.009838	11.117509	0.191158	0.094786	10.568704	0.097019	0.096471	9.346286	2.618331	2.618890	29.500000	7.460000	34.673685
4508.599877	1.009838	24.658724	1.009838	11.118211	0.191584	0.094783	10.567256	0.096277	0.096477	9.346384	2.618409	2.618904	29.500000	7.460000	34.673685
4514.599220	1.009838	24.658688	1.009838	11.118736	0.190763	0.094781	10.565618	0.097705	0.096485	9.346413	2.618331	2.618904	29.500000	7.460000	34.673685
4520.599564	1.009838	24.658662	1.009838	11.119178	0.191742	0.094779	10.563762	0.097374	0.096493	9.346442	2.618331	2.618905	29.500000	7.460000	34.673685
4526.599907	1.009838	24.658689	1.009838	11.118675	0.191394	0.094781	10.563806	0.095922	0.096493	9.346539	2.618252	2.618933	29.500000	7.460000	34.673685
4532.599250	1.009838	24.658765	1.009838	11.117626	0.190890	0.094786	10.563838	0.096301	0.096493	9.346504	2.618409	2.618938	29.500000	7.460000	34.673685
4538.599593	1.009838	24.658675	1.009838	11.119152	0.190976	0.094779	10.563099	0.096467	0.096496	9.346580	2.619672	2.618936	29.500000	7.460000	34.673685
4544.599936	1.009838	24.658380	1.009838	11.123193	0.191110	0.094760	10.560967	0.096695	0.096506	9.346916	2.620935	2.618964	29.500000	7.460000	34.673685
4550.599279	1.009838	24.658228	1.009838	11.125531	0.191150	0.094750	10.557992	0.096482	0.096520	9.347254	2.621014	2.619012	29.500000	7.460000	34.673685
4556.599623	1.009838	24.658114	1.009838	11.127020	0.191394	0.094743	10.556092	0.097319	0.096529	9.347479	2.619672	2.619044	29.500000	7.460000	34.673685
4562.599966	1.009838	24.657929	1.009838	11.129723	0.190976	0.094731	10.554471	0.096743	0.096536	9.347755	2.621014	2.619074	29.500000	7.460000	34.673685
4568.599309	1.009838	24.657865	1.009838	11.130478	0.191529	0.094727	10.553356	0.097074	0.096541	9.348015	2.620935	2.619123	29.500000	7.460000	34.673685
4574.599652	1.009838	24.657885	1.009838	11.130285	0.191268	0.094728	10.552408	0.097745	0.096546	9.348402	2.622197	2.619213	29.500000	7.460000	34.673685
4580.599996	1.009838	24.657808	1.009838	11.131726	0.191300	0.094722	10.551213	0.096301	0.096551	9.348970	2.622118	2.619322	29.500000	7.460000	34.673685
4586.599339	1.009838	24.657834	1.009838	11.131101	0.191750	0.094725	10.552110	0.096680	0.096547	9.349311	2.622118	2.619408	29.500000	7.460000	34.673685
4592.599682	1.009838	24.657895	1.009838	11.130265	0.192105	0.094728	10.551370	0.096356	0.096551	9.349653	2.622197	2.619495	29.500000	7.460000	34.673685
4598.600025	1.009838	24.657935	1.009838	11.129680	0.191663	0.094731	10.549782	0.096269	0.096558	9.349920	2.619672	2.619561	29.500000	7.460000	34.673685
4604.599368	1.009838	24.657904	1.009838	11.129994	0.191260	0.094730	10.549007	0.096435	0.096561	9.349992	2.618331	2.619573	29.500000	7.460000	34.673685
4610.599711	1.009838	24.657898	1.009838	11.130305	0.191568	0.094728	10.547822	0.096782	0.096567	9.350192	2.619672	2.619614	29.500000	7.460000	34.673685
4616.600055	1.009838	24.657616	1.009838	11.134258	0.191205	0.094710	10.545898	0.096490	0.096576	9.350727	2.621014	2.619687	29.500000	7.460000	34.673685
4622.599398	1.009838	24.657399	1.009838	11.137418	0.192404	0.094696	10.542920	0.097350	0.096590	9.351295	2.621014	2.619777	29.500000	7.460000	34.673685
4628.599741	1.009838	24.657202	1.009838	11.140423	0.191079	0.094683	10.541232	0.095401	0.096597	9.351736	2.621014	2.619839	29.500000	7.460000	34.673685
4634.602084	1.009838	24.657045	1.009838	11.142784	0.190613	0.094672	10.541393	0.096514	0.096597	9.352061	2.621093	2.619884	29.500000	7.460000	34.673685
4640.599427	1.009838	24.657043	1.009838	11.142430	0.192081	0.094673	10.540768	0.097185	0.096600	9.352233	2.621329	2.619927	29.500000	7.460000	34.673685
4646.599771	1.009838	24.656896	1.009838	11.144493	0.191537	0.094664	10.540297	0.096814	0.096602	9.352670	2.620935	2.620001	29.500000	7.460000	34.673685
4652.599113	1.009838	24.656984	1.009838	11.143542	0.190337	0.094668	10.539916	0.096482	0.096603	9.352858	2.621014	2.620054	29.500000	7.460000	34.673685
4658.599457	1.009838	24.656966	1.009838	11.143786	0.191316	0.094667	10.539667	0.096253	0.096605	9.352992	2.621014	2.620081	29.500000	7.460000	34.673685
4664.599800	1.009838	24.656981	1.009838	11.143526	0.190329	0.094669	10.537780	0.096293	0.096613	9.353212	2.621093	2.620134	29.500000	7.460000	34.673685
4670.599143	1.009838	24.657018	1.009838	11.142953	0.191032	0.094671	10.536057	0.097832	0.096621	9.353344	2.621014	2.620171	29.500000	7.460000	34.673685
4676.599486	1.009838	24.656810	1.009838	11.146088	0.191710	0.094657	10.533468	0.096624	0.096633	9.353637	2.621014	2.620199	29.500000	7.460000	34.673685
4682.599830	1.009838	24.656661	1.009838	11.148272	0.191110	0.094647	10.530598	0.096135	0.096647	9.353901	2.619672	2.620232	29.500000	7.460000	34.673685
4688.599173	1.009838	24.656478	1.009838	11.150667	0.190511	0.094636	10.528417	0.096356	0.096657	9.354011	2.621014	2.620228	29.500000	7.460000	34.673685
4694.599516	1.009838	24.656596	1.009838	11.148852	0.191331	0.094644	10.528272	0.096214	0.096657	9.353939	2.621014	2.620233	29.500000	7.460000	34.673685
4700.599859	1.009838	24.656781	1.009838	11.146254	0.192199	0.094656	10.529781	0.097058	0.096650	9.353967	2.620935	2.620271	29.500000	7.460000	34.673685
4706.599202	1.009838	24.656882	1.009838	11.144907	0.190850	0.094662	10.529094	0.095898	0.096653	9.354030	2.621014	2.620301	29.500000	7.460000	34.673685
4712.599545	1.009838	24.656940	1.009838	11.143800	0.192491	0.094667	10.528136	0.095843	0.096658	9.354092	2.620935	2.620329	29.500000	7.460000	34.673685
4718.599889	1.009838	24.656944	1.009838	11.144183	0.191907	0.094666	10.526751	0.097421	0.096664	9.354234	2.620935	2.620356	29.500000	7.460000	34.673685
4724.599232	1.009838	24.656877	1.009838	11.145120	0.190984	0.094661	10.526196	0.096419	0.096667	9.354401	2.620935	2.620382	29.500000	7.460000	34.673685
4730.599575	1.009838	24.656962	1.009838	11.143503	0.191813	0.094669	10.526197	0.096806	0.096667	9.354515	2.620935	2.620428	29.500000	7.460000	34.673685
4736.599918	1.009838	24.657071	1.009838	11.142221	0.192302	0.094674	10.525072	0.097232	0.096672	9.354582	2.622040	2.620458	29.500000	7.460000	34.673685
4742.599261	1.009838	24.657093	1.009838	11.141742	0.192247	0.094677	10.524056	0.096403	0.096677	9.354681	2.622355	2.620486	29.500000	7.460000	34.673685
4748.599605	1.009838	24.657328	1.009838	11.138425	0.191757	0.094692	10.524483	0.097642	0.096675	9.354514	2.620935	2.620489	29.500000	7.460000	34.673685
4754.599948	1.009838	24.657582	1.009838	11.134762	0.191418	0.094708	10.524133	0.096372	0.096676	9.354460	2.623460	2.620522	29.500000	7.460000	34.673685
4760.599291	1.009838	24.657760	1.009838	11.132186	0.192397	0.094720	10.523737	0.096940	0.096678	9.354567	2.623381	2.620577	29.500000	7.460000	34.673685
4766.599634	1.009838	24.657925	1.009838	11.129794	0.192381	0.094731	10.521993	0.096214	0.096686	9.354679	2.620935	2.620631	29.500000	7.460000	34.673685
4772.599977	1.009838	24.658160	1.009838	11.126390	0.192499	0.094746	10.522368	0.097019	0.096685	9.354729	2.623934	2.620684	29.500000	7.460000	34.673685
4778.599320	1.009838	24.658428	1.009838	11.122508	0.191544	0.094764	10.522912	0.096230	0.096682	9.354906	2.623618	2.620771	29.500000	7.460000	34.673685
4784.599664	1.009838	24.658688	1.009838	11.118737	0.191473	0.094781	10.522244	0.096545	0.096685	9.355071	2.623539	2.620853	29.500000	7.460000	34.673685
4790.600007	1.009838	24.658717	1.009838	11.118315	0.191331	0.094782	10.520468	0.096798	0.096693	9.355329	2.622355	2.620916	29.500000	7.460000	34.673685
4796.599350	1.009838	24.658934	1.009838	11.115170	0.191907	0.094797	10.519709	0.096940	0.096697	9.355308	2.621093	2.620949	29.500000	7.460000	34.673685
4802.599693	1.009838	24.659159	1.009838	11.111912	0.192941	0.094811	10.517981	0.097342	0.096705	9.355371	2.621014	2.621003	29.500000	7.460000	34.673685
4808.600037	1.009838	24.659325	1.009838	11.109505	0.191679	0.094822	10.516270	0.096348	0.096713	9.355416	2.619672	2.621042	29.500000	7.460000	34.673685
4814.599380	1.009838	24.659373	1.009838	11.108820	0.191647	0.094825	10.514936	0.096593	0.096719	9.355492	2.621014	2.621067	29.500000	7.460000	34.673685
4820.599723	1.009838	24.659495	1.009838	11.107050	0.192688	0.094833	10.513303	0.096900	0.096727	9.355629	2.621014	2.621120	29.500000	7.460000	34.673685
4826.599066	1.009838	24.659614	1.009838	11.105321	0.192113	0.094841	10.511601	0.097382	0.096734	9.355695	2.619593	2.621155	29.500000	7.460000	34.673685
4832.599409	1.009838	24.659544	1.009838	11.106342	0.190219	0.094837	10.508941	0.097192	0.096747	9.355967	2.622592	2.621205	29.500000	7.460000	34.673685
4838.599752	1.009838	24.659709	1.009838	11.103952	0.191071	0.094847	10.508102	0.096585	0.096751	9.356148	2.622040	2.621274	29.500000	7.460000	34.673685
4844.599095	1.009838	24.659652	1.009838	11.104773	0.191765	0.094844	10.505555	0.096585	0.096762	9.356392	2.623302	2.621319	29.500000	7.460000	34.673685
4850.599439	1.009838	24.659448	1.009838	11.107733	0.191702	0.094830	10.500764	0.095772	0.096785	9.356761	2.622829	2.621366	29.500000	7.460000	34.673685
4856.599782	1.009838	24.659300	1.009838	11.109875	0.191923	0.094821	10.497729	0.097121	0.096799	9.357091	2.622118	2.621414	29.500000	7.460000	34.673685
4862.599125	1.009838	24.659269	1.009838	11.110314	0.190534	0.094819	10.496327	0.096561	0.096805	9.357326	2.622197	2.621462	29.500000	7.460000	34.673685
4868.599468	1.009838	24.659283	1.009838	11.110123	0.191734	0.094820	10.494986	0.097666	0.096811	9.357510	2.623381	2.621506	29.500000	7.460000	34.673685
4874.599812	1.009838	24.659403	1.009838	11.108383	0.191434	0.094827	10.493713	0.096167	0.096817	9.357581	2.623381	2.621542	29.500000	7.460000	34.673685
4880.599154	1.009838	24.659429	1.009838	11.108003	0.192081	0.094829	10.492743	0.096435	0.096822	9.357626	2.623460	2.621557	29.500000	7.460000	34.673685
4886.599498	1.009838	24.659608	1.009838	11.105406	0.192420	0.094841	10.493038	0.096916	0.096820	9.357659	2.623460	2.621596	29.500000	7.460000	34.673685
4892.599841	1.009838	24.659666	1.009838	11.104567	0.192128	0.094845	10.492591	0.096869	0.096822	9.357684	2.622197	2.621611	29.500000	7.460000	34.673685
4898.599184	1.009838	24.659489	1.009838	11.107134	0.191600	0.094833	10.490338	0.096806	0.096833	9.357845	2.622197	2.621617	29.500000	7.460000	34.673685
4904.599527	1.009838	24.659435	1.009838	11.107911	0.191576	0.094830	10.490382	0.097421	0.096833	9.358171	2.622118	2.621681	29.500000	7.460000	34.673685
4910.599871	1.009838	24.659088	1.009838	11.112945	0.190819	0.094807	10.487735	0.097634	0.096845	9.358692	2.622118	2.621738	29.500000	7.460000	34.673685
4916.599214	1.009838	24.658973	1.009838	11.114612	0.191379	0.094799	10.487349	0.096932	0.096847	9.358910	2.622118	2.621766	29.500000	7.460000	34.673685
4922.599557	1.009838	24.658861	1.009838	11.116363	0.191418	0.094791	10.485104	0.097358	0.096857	9.359109	2.622197	2.621790	29.500000	7.460000	34.673685
4928.599900	1.009838	24.658543	1.009838	11.120837	0.191986	0.094771	10.481850	0.096680	0.096872	9.359413	2.622118	2.621804	29.500000	7.460000	34.673685
4934.599243	1.009838	24.658448	1.009838	11.122212	0.192010	0.094765	10.480457	0.096743	0.096879	9.359536	2.622197	2.621815	29.500000	7.460000	34.673685
4940.599586	1.009838	24.658460	1.009838	11.122045	0.192191	0.094766	10.480760	0.097216	0.096877	9.359669	2.623381	2.621847	29.500000	7.460000	34.673685
4946.599929	1.009838	24.658365	1.009838	11.123419	0.192160	0.094759	10.480256	0.096332	0.096880	9.359954	2.624565	2.621895	29.500000	7.460000	34.673685
4952.599273	1.009838	24.658199	1.009838	11.125818	0.191702	0.094749	10.479898	0.096332	0.096881	9.360406	2.625354	2.621968	29.500000	7.460000	34.673685
4958.599616	1.009838	24.658038	1.009838	11.128153	0.192617	0.094738	10.479268	0.097011	0.096884	9.360787	2.623381	2.622025	29.500000	7.460000	34.673685
4964.599959	1.009838	24.658087	1.009838	11.127442	0.191876	0.094741	10.478977	0.097445	0.096886	9.361025	2.625354	2.622088	29.500000	7.460000	34.673685
4970.599302	1.009838	24.658205	1.009838	11.125735	0.192594	0.094749	10.479390	0.097066	0.096884	9.361324	2.624644	2.622176	29.500000	7.460000	34.673685
4976.599646	1.009838	24.658389	1.009838	11.123104	0.192002	0.094761	10.479993	0.097413	0.096881	9.361500	2.624644	2.622247	29.500000	7.460000	34.673685
4982.599988	1.009838	24.658587	1.009838	11.120155	0.192120	0.094774	10.480587	0.097934	0.096878	9.361574	2.623460	2.622299	29.500000	7.460000	34.673685
4988.599332	1.009838	24.658572	1.009838	11.120413	0.190961	0.094773	10.479408	0.097050	0.096884	9.361865	2.623381	2.622361	29.500000	7.460000	34.673685
4994.599675	1.009838	24.658545	1.009838	11.120812	0.191331	0.094771	10.478729	0.097074	0.096887	9.362091	2.625038	2.622408	29.500000	7.460000	34.673685
5000.600018	1.009838	24.658675	1.009838	11.118923	0.191876	0.094780	10.479967	0.096577	0.096881	9.362262	2.624644	2.622469	29.500000	7.460000	34.673685
5006.599361	1.009838	24.658770	1.009838	11.117558	0.192815	0.094786	10.480633	0.097082	0.096878	9.362562	2.625906	2.622553	29.500000	7.460000	34.673685
5012.599704	1.009838	24.658882	1.009838	11.115861	0.191276	0.094794	10.480068	0.097587	0.096880	9.362800	2.624565	2.622627	29.500000	7.460000	34.673685
5018.600048	1.009838	24.658922	1.009838	11.115271	0.191576	0.094796	10.478065	0.097334	0.096890	9.363078	2.623381	2.622696	29.500000	7.460000	34.673685
5024.599391	1.009838	24.658855	1.009838	11.116321	0.190392	0.094791	10.476278	0.097413	0.096898	9.363395	2.623381	2.622755	29.500000	7.460000	34.673685
5030.599734	1.009838	24.658800	1.009838	11.116995	0.192049	0.094788	10.473632	0.096711	0.096910	9.363635	2.623381	2.622801	29.500000	7.460000	34.673685
5036.599077	1.009838	24.658563	1.009838	11.120626	0.192239	0.094772	10.470414	0.096924	0.096925	9.363974	2.622197	2.622833	29.500000	7.460000	34.673685
5042.599421	1.009838	24.658565	1.009838	11.120388	0.192278	0.094773	10.470029	0.097650	0.096927	9.364000	2.623302	2.622841	29.500000	7.460000	34.673685
5048.599763	1.009838	24.658711	1.009838	11.118494	0.191615	0.094782	10.469472	0.096790	0.096930	9.364184	2.624407	2.622907	29.500000	7.460000	34.673685
5054.599107	1.009838	24.658680	1.009838	11.118624	0.192026	0.094781	10.467327	0.097374	0.096940	9.364465	2.626538	2.622968	29.500000	7.460000	34.673685
5060.599450	1.009838	24.658989	1.009838	11.114229	0.192783	0.094801	10.468004	0.096672	0.096936	9.364382	2.624486	2.623002	29.500000	7.460000	34.673685
5066.599793	1.009838	24.659232	1.009838	11.110776	0.192041	0.094817	10.468002	0.096253	0.096936	9.364398	2.624644	2.623048	29.500000	7.460000	34.673685
5072.599136	1.009838	24.659433	1.009838	11.107710	0.192199	0.094830	10.469160	0.096861	0.096931	9.364467	2.624565	2.623100	29.500000	7.460000	34.673685
5078.599480	1.009838	24.659626	1.009838	11.104638	0.192586	0.094844	10.469508	0.097532	0.096929	9.364343	2.623460	2.623109	29.500000	7.460000	34.673685
5084.599823	1.009838	24.659678	1.009838	11.104253	0.192223	0.094846	10.469272	0.097019	0.096931	9.364259	2.623381	2.623094	29.500000	7.460000	34.673685
5090.599166	1.009838	24.659854	1.009838	11.101852	0.192302	0.094857	10.468050	0.097382	0.096936	9.364164	2.623381	2.623102	29.500000	7.460000	34.673685
5096.599509	1.009838	24.659966	1.009838	11.100067	0.192065	0.094865	10.466817	0.097050	0.096942	9.364288	2.623460	2.623152	29.500000	7.460000	34.673685
5102.599852	1.009838	24.660095	1.009838	11.098621	0.192349	0.094872	10.466171	0.096056	0.096945	9.364508	2.623381	2.623219	29.500000	7.460000	34.673685
5108.599195	1.009838	24.660277	1.009838	11.095661	0.191694	0.094885	10.466502	0.098045	0.096943	9.364706	2.624486	2.623300	29.500000	7.460000	34.673685
5114.599539	1.009838	24.660137	1.009838	11.097822	0.192207	0.094875	10.465081	0.097263	0.096950	9.365155	2.622118	2.623374	29.500000	7.460000	34.673685
5120.599882	1.009838	24.660016	1.009838	11.099733	0.191765	0.094867	10.463264	0.097532	0.096958	9.365355	2.622197	2.623396	29.500000	7.460000	34.673685
5126.599225	1.009838	24.659757	1.009838	11.103360	0.191497	0.094850	10.460846	0.097682	0.096970	9.365721	2.623381	2.623436	29.500000	7.460000	34.673685
5132.599568	1.009838	24.659784	1.009838	11.102976	0.191205	0.094852	10.461701	0.097082	0.096966	9.365934	2.623460	2.623487	29.500000	7.460000	34.673685
5138.599911	1.009838	24.659958	1.009838	11.100113	0.192286	0.094865	10.462123	0.097161	0.096964	9.365969	2.624565	2.623529	29.500000	7.460000	34.673685
5144.599255	1.009838	24.660127	1.009838	11.097590	0.192696	0.094876	10.461659	0.096893	0.096966	9.366032	2.625749	2.623574	29.500000	7.460000	34.673685
5150.599598	1.009838	24.660041	1.009838	11.099099	0.191663	0.094869	10.459919	0.097271	0.096974	9.366336	2.626064	2.623625	29.500000	7.460000	34.673685
5156.599941	1.009838	24.660213	1.009838	11.096275	0.192862	0.094882	10.460752	0.096356	0.096970	9.366476	2.626064	2.623690	29.500000	7.460000	34.673685
5162.599284	1.009838	24.660238	1.009838	11.096352	0.191805	0.094882	10.459574	0.096719	0.096975	9.366679	2.624170	2.623735	29.500000	7.460000	34.673685
5168.599627	1.009838	24.660191	1.009838	11.097109	0.191552	0.094878	10.460385	0.097279	0.096972	9.366889	2.624644	2.623773	29.500000	7.460000	34.673685
5174.599970	1.009838	24.660207	1.009838	11.096738	0.191915	0.094880	10.461361	0.096569	0.096967	9.366971	2.624565	2.623795	29.500000	7.460000	34.673685
5180.599313	1.009838	24.660165	1.009838	11.097493	0.191489	0.094877	10.462469	0.096175	0.096962	9.367115	2.624644	2.623819	29.500000	7.460000	34.673685
5186.599657	1.009838	24.660069	1.009838	11.098720	0.192428	0.094871	10.463645	0.097342	0.096957	9.367223	2.623460	2.623828	29.500000	7.460000	34.673685
5192.600000	1.009838	24.659799	1.009838	11.102591	0.191923	0.094854	10.461646	0.097232	0.096966	9.367471	2.623934	2.623837	29.500000	7.460000	34.673685
5198.599343	1.009838	24.659587	1.009838	11.105224	0.192870	0.094842	10.462009	0.096837	0.096964	9.367708	2.623381	2.623859	29.500000	7.460000	34.673685
5204.599686	1.009838	24.659509	1.009838	11.107031	0.191584	0.094834	10.462781	0.096971	0.096961	9.367912	2.623381	2.623883	29.500000	7.460000	34.673685
5210.600029	1.009838	24.659537	1.009838	11.106518	0.192049	0.094836	10.464401	0.098084	0.096953	9.367999	2.623381	2.623909	29.500000	7.460000	34.673685
5216.599372	1.009838	24.659567	1.009838	11.106069	0.191710	0.094838	10.466527	0.096695	0.096943	9.368079	2.623302	2.623932	29.500000	7.460000	34.673685
5222.599716	1.009838	24.659534	1.009838	11.106613	0.190684	0.094835	10.468800	0.096522	0.096933	9.368073	2.622197	2.623924	29.500000	7.460000	34.673685
5228.600059	1.009838	24.659579	1.009838	11.106053	0.191631	0.094838	10.473757	0.096222	0.096910	9.368081	2.622118	2.623933	29.500000	7.460000	34.673685
5234.599402	1.009838	24.659682	1.009838	11.104218	0.191710	0.094846	10.478562	0.096151	0.096887	9.368069	2.623381	2.623952	29.500000	7.460000	34.673685
5240.599745	1.009838	24.659846	1.009838	11.102037	0.191323	0.094856	10.485363	0.096956	0.096856	9.368024	2.623381	2.623968	29.500000	7.460000	34.673685
5246.599089	1.009838	24.659774	1.009838	11.102928	0.191442	0.094852	10.491096	0.095472	0.096829	9.367989	2.623381	2.623950	29.500000	7.460000	34.673685
5252.599432	1.009838	24.659867	1.009838	11.101513	0.190661	0.094858	10.497388	0.095614	0.096800	9.367828	2.623302	2.623931	29.500000	7.460000	34.673685
5258.599775	1.009838	24.659938	1.009838	11.100585	0.191292	0.094863	10.503321	0.096025	0.096773	9.367828	2.623302	2.623942	29.500000	7.460000	34.673685
5264.599118	1.009838	24.660139	1.009838	11.097718	0.191221	0.094876	10.511529	0.096238	0.096735	9.367619	2.624644	2.623929	29.500000	7.460000	34.673685
5270.599461	1.009838	24.660218	1.009838	11.096568	0.191828	0.094881	10.520540	0.095914	0.096693	9.367441	2.623855	2.623903	29.500000	7.460000	34.673685
5276.599804	1.009838	24.660253	1.009838	11.096069	0.191166	0.094883	10.531087	0.095914	0.096644	9.367341	2.624644	2.623887	29.500000	7.460000	34.673685
5282.599148	1.009838	24.660191	1.009838	11.096966	0.189722	0.094879	10.539292	0.095954	0.096606	9.367546	2.626459	2.623923	29.500000	7.460000	34.673685
5288.599491	1.009838	24.660053	1.009838	11.098965	0.190747	0.094870	10.548528	0.095938	0.096564	9.367915	2.627090	2.623982	29.500000	7.460000	34.673685
5294.599834	1.009838	24.660094	1.009838	11.098367	0.190463	0.094873	10.560969	0.096317	0.096506	9.368111	2.625906	2.624033	29.500000	7.460000	34.673685
5300.599177	1.009838	24.660282	1.009838	11.095643	0.190235	0.094885	10.572237	0.095638	0.096454	9.368075	2.625827	2.624058	29.500000	7.460000	34.673685
5306.599520	1.009838	24.660147	1.009838	11.097596	0.190890	0.094876	10.581965	0.096324	0.096409	9.368393	2.628195	2.624106	29.500000	7.460000	34.673685
5312.599864	1.009838	24.660253	1.009838	11.096063	0.191126	0.094883	10.593313	0.094352	0.096357	9.368622	2.628274	2.624176	29.500000	7.460000	34.673685
5318.599207	1.009838	24.660454	1.009838	11.093159	0.190605	0.094896	10.605381	0.093807	0.096302	9.368792	2.628195	2.624250	29.500000	7.460000	34.673685
5324.599550	1.009838	24.660495	1.009838	11.092554	0.189035	0.094899	10.615840	0.095606	0.096253	9.369187	2.628274	2.624346	29.500000	7.460000	34.673685
5330.599893	1.009838	24.660666	1.009838	11.090087	0.191663	0.094910	10.626200	0.096198	0.096206	9.369491	2.628195	2.624444	29.500000	7.460000	34.673685
5336.599236	1.009838	24.660769	1.009838	11.088594	0.190258	0.094917	10.635263	0.095228	0.096164	9.370012	2.630720	2.624581	29.500000	7.460000	34.673685
5342.599579	1.009838	24.660994	1.009838	11.085337	0.189785	0.094932	10.647680	0.095820	0.096107	9.370564	2.630720	2.624744	29.500000	7.460000	34.673685
5348.599923	1.009838	24.661090	1.009838	11.083932	0.191142	0.094938	10.657353	0.095685	0.096063	9.370992	2.628195	2.624856	29.500000	7.460000	34.673685
5354.599266	1.009838	24.661200	1.009838	11.082348	0.190456	0.094945	10.667916	0.095638	0.096014	9.371082	2.627011	2.624895	29.500000	7.460000	34.673685
5360.599609	1.009838	24.661182	1.009838	11.082608	0.191497	0.094944	10.677728	0.095843	0.095969	9.371262	2.627011	2.624933	29.500000	7.460000	34.673685
5366.599952	1.009838	24.661172	1.009838	11.082756	0.189722	0.094943	10.689461	0.095733	0.095915	9.371488	2.627090	2.624982	29.500000	7.460000	34.673685
5372.599295	1.009838	24.661019	1.009838	11.084963	0.190519	0.094933	10.699000	0.096111	0.095872	9.371800	2.627011	2.625025	29.500000	7.460000	34.673685
5378.599638	1.009838	24.660815	1.009838	11.087927	0.190392	0.094920	10.707696	0.095307	0.095832	9.372300	2.628195	2.625103	29.500000	7.460000	34.673685
5384.599982	1.009838	24.660614	1.009838	11.090835	0.191387	0.094907	10.715998	0.095520	0.095794	9.372938	2.627090	2.625211	29.500000	7.460000	34.673685
5390.599325	1.009838	24.660209	1.009838	11.096703	0.189280	0.094880	10.722349	0.095630	0.095765	9.373577	2.627090	2.625284	29.500000	7.460000	34.673685
5396.599668	1.009838	24.660175	1.009838	11.097196	0.190077	0.094878	10.732981	0.094597	0.095716	9.373863	2.625749	2.625342	29.500000	7.460000	34.673685
5402.600011	1.009838	24.660119	1.009838	11.098007	0.189745	0.094874	10.743238	0.095922	0.095669	9.374038	2.625906	2.625371	29.500000	7.460000	34.673685
5408.599354	1.009838	24.659887	1.009838	11.101365	0.189667	0.094859	10.752471	0.095425	0.095627	9.374248	2.624486	2.625377	29.500000	7.460000	34.673685
5414.599698	1.009838	24.659655	1.009838	11.104724	0.189903	0.094844	10.760670	0.094833	0.095590	9.374608	2.625827	2.625419	29.500000	7.460000	34.673685
5420.600041	1.009838	24.659552	1.009838	11.106224	0.189217	0.094837	10.769018	0.094581	0.095551	9.375020	2.625906	2.625493	29.500000	7.460000	34.673685
5426.599384	1.009838	24.659724	1.009838	11.103723	0.189761	0.094848	10.778338	0.094810	0.095509	9.375079	2.624486	2.625536	29.500000	7.460000	34.673685
5432.599727	1.009838	24.659740	1.009838	11.103498	0.189162	0.094850	10.787599	0.094060	0.095467	9.375172	2.624565	2.625560	29.500000	7.460000	34.673685
5438.599070	1.009838	24.659777	1.009838	11.102964	0.190471	0.094852	10.796690	0.095749	0.095425	9.375258	2.625827	2.625585	29.500000	7.460000	34.673685
5444.599413	1.009838	24.659685	1.009838	11.104296	0.189020	0.094846	10.803629	0.094912	0.095394	9.375417	2.627011	2.625605	29.500000	7.460000	34.673685
5450.599757	1.009838	24.659448	1.009838	11.107726	0.189580	0.094830	10.812242	0.094881	0.095354	9.375604	2.626143	2.625605	29.500000	7.460000	34.673685
5456.599100	1.009838	24.659306	1.009838	11.109789	0.188270	0.094821	10.820256	0.094573	0.095318	9.375716	2.625827	2.625606	29.500000	7.460000	34.673685
5462.599443	1.009838	24.659034	1.009838	11.113729	0.190590	0.094803	10.828748	0.094439	0.095279	9.376055	2.625827	2.625635	29.500000	7.460000	34.673685
5468.599786	1.009838	24.658806	1.009838	11.117161	0.190187	0.094788	10.836665	0.095196	0.095243	9.376378	2.626932	2.625666	29.500000	7.460000	34.673685
5474.599129	1.009838	24.658747	1.009838	11.117800	0.188641	0.094785	10.847056	0.094668	0.095196	9.376579	2.625827	2.625704	29.500000	7.460000	34.673685
5480.599473	1.009838	24.658587	1.009838	11.120245	0.189248	0.094774	10.857499	0.094344	0.095149	9.376821	2.626143	2.625728	29.500000	7.460000	34.673685
5486.599816	1.009838	24.658574	1.009838	11.120497	0.189304	0.094773	10.868824	0.094099	0.095097	9.377021	2.625827	2.625771	29.500000	7.460000	34.673685
5492.599159	1.009838	24.658549	1.009838	11.121100	0.189335	0.094770	10.878043	0.093823	0.095055	9.377273	2.625985	2.625820	29.500000	7.460000	34.673685
5498.599502	1.009838	24.658326	1.009838	11.123649	0.188412	0.094758	10.887958	0.094289	0.095010	9.377740	2.627564	2.625895	29.500000	7.460000	34.673685
5504.599845	1.009838	24.658312	1.009838	11.124518	0.188388	0.094754	10.898538	0.093989	0.094962	9.378077	2.626064	2.625960	29.500000	7.460000	34.673685
5510.599188	1.009838	24.658073	1.009838	11.127454	0.189627	0.094741	10.908273	0.094123	0.094918	9.378473	2.625906	2.626013	29.500000	7.460000	34.673685
5516.599532	1.009838	24.657934	1.009838	11.129623	0.189714	0.094731	10.916328	0.094478	0.094882	9.378809	2.626380	2.626062	29.500000	7.460000	34.673685
5522.599875	1.009838	24.657827	1.009838	11.131193	0.189485	0.094724	10.923884	0.094328	0.094848	9.379272	2.627090	2.626149	29.500000	7.460000	34.673685
5528.599218	1.009838	24.657864	1.009838	11.130881	0.188720	0.094726	10.930535	0.094762	0.094818	9.379636	2.625827	2.626234	29.500000	7.460000	34.673685
5534.599561	1.009838	24.657819	1.009838	11.131291	0.189382	0.094724	10.939119	0.094407	0.094779	9.380020	2.628195	2.626314	29.500000	7.460000	34.673685
5540.599905	1.009838	24.657917	1.009838	11.129893	0.188996	0.094730	10.946653	0.095125	0.094745	9.380332	2.628116	2.626401	29.500000	7.460000	34.673685
5546.599247	1.009838	24.657839	1.009838	11.130978	0.189288	0.094725	10.950789	0.094052	0.094726	9.380772	2.627090	2.626489	29.500000	7.460000	34.673685
5552.599591	1.009838	24.657645	1.009838	11.134062	0.188791	0.094711	10.954849	0.094904	0.094708	9.381243	2.627090	2.626557	29.500000	7.460000	34.673685
5558.599934	1.009838	24.657610	1.009838	11.134328	0.188901	0.094710	10.957900	0.094810	0.094694	9.381544	2.627327	2.626621	29.500000	7.460000	34.673685
5564.599277	1.009838	24.657621	1.009838	11.134069	0.188672	0.094711	10.961837	0.094084	0.094676	9.381782	2.624644	2.626677	29.500000	7.460000	34.673685
5570.599620	1.009838	24.657596	1.009838	11.134671	0.188657	0.094709	10.965231	0.095117	0.094661	9.381916	2.625749	2.626700	29.500000	7.460000	34.673685
5576.599964	1.009838	24.657360	1.009838	11.138070	0.190014	0.094693	10.966450	0.095149	0.094655	9.382214	2.624407	2.626726	29.500000	7.460000	34.673685
5582.599307	1.009838	24.657053	1.009838	11.142373	0.189785	0.094674	10.967867	0.094707	0.094649	9.382427	2.626143	2.626722	29.500000	7.460000	34.673685
5588.599650	1.009838	24.656826	1.009838	11.145482	0.190227	0.094660	10.967115	0.095954	0.094652	9.382550	2.625906	2.626712	29.500000	7.460000	34.673685
5594.599993	1.009838	24.656559	1.009838	11.149699	0.189722	0.094641	10.966066	0.095180	0.094657	9.382731	2.624959	2.626702	29.500000	7.460000	34.673685
5600.599336	1.009838	24.656531	1.009838	11.149927	0.189690	0.094640	10.964364	0.095101	0.094665	9.382526	2.622197	2.626653	29.500000	7.460000	34.673685
5606.599679	1.009838	24.656525	1.009838	11.149874	0.189020	0.094640	10.963270	0.095567	0.094670	9.382041	2.622434	2.626545	29.500000	7.460000	34.673685
5612.600023	1.009838	24.656458	1.009838	11.151211	0.189043	0.094634	10.960232	0.093224	0.094683	9.381663	2.623618	2.626443	29.500000	7.460000	34.673685
5618.600366	1.009838	24.656387	1.009838	11.152001	0.190022	0.094630	10.957688	0.095346	0.094695	9.381267	2.622276	2.626345	29.500000	7.460000	34.673685
5624.599709	1.009838	24.656320	1.009838	11.153190	0.190282	0.094625	10.953257	0.094810	0.094715	9.380838	2.622118	2.626234	29.500000	7.460000	34.673685
5630.600052	1.009838	24.656326	1.009838	11.152880	0.190369	0.094626	10.949568	0.094494	0.094731	9.380282	2.622197	2.626112	29.500000	7.460000	34.673685
5636.599395	1.009838	24.656093	1.009838	11.156113	0.189864	0.094612	10.944667	0.095046	0.094754	9.379709	2.622118	2.625944	29.500000	7.460000	34.673685
5642.599739	1.009838	24.656042	1.009838	11.157000	0.188641	0.094608	10.940719	0.095267	0.094771	9.378988	2.622197	2.625771	29.500000	7.460000	34.673685
5648.599082	1.009838	24.656220	1.009838	11.154635	0.189872	0.094618	10.937199	0.094991	0.094787	9.378061	2.621014	2.625592	29.500000	7.460000	34.673685
5654.599425	1.009838	24.656341	1.009838	11.152486	0.189596	0.094628	10.932818	0.094944	0.094807	9.377359	2.620856	2.625460	29.500000	7.460000	34.673685
5660.599768	1.009838	24.656375	1.009838	11.152471	0.189264	0.094628	10.927809	0.095425	0.094830	9.376892	2.622434	2.625355	29.500000	7.460000	34.673685
5666.599111	1.009838	24.656319	1.009838	11.152982	0.190842	0.094626	10.922454	0.095354	0.094854	9.376466	2.622118	2.625253	29.500000	7.460000	34.673685
5672.599454	1.009838	24.656462	1.009838	11.151156	0.189367	0.094634	10.919301	0.095520	0.094868	9.375772	2.619593	2.625118	29.500000	7.460000	34.673685
5678.599798	1.009838	24.656407	1.009838	11.151692	0.190337	0.094632	10.914728	0.095417	0.094889	9.375076	2.619514	2.624955	29.500000	7.460000	34.673685
5684.599141	1.009838	24.656578	1.009838	11.149526	0.188806	0.094641	10.909518	0.095449	0.094913	9.374211	2.619830	2.624787	29.500000	7.460000	34.673685
5690.599484	1.009838	24.656541	1.009838	11.149624	0.189848	0.094641	10.905545	0.094786	0.094931	9.373491	2.618252	2.624624	29.500000	7.460000	34.673685
5696.599827	1.009838	24.656513	1.009838	11.150253	0.189753	0.094638	10.901362	0.095180	0.094950	9.372881	2.618331	2.624476	29.500000	7.460000	34.673685
5702.599170	1.009838	24.656618	1.009838	11.148736	0.190306	0.094645	10.895640	0.094754	0.094976	9.372102	2.617620	2.624319	29.500000	7.460000	34.673685
5708.599514	1.009838	24.656731	1.009838	11.147091	0.190850	0.094652	10.892787	0.094959	0.094988	9.371345	2.617147	2.624169	29.500000	7.460000	34.673685
5714.599856	1.009838	24.656961	1.009838	11.143772	0.189966	0.094667	10.889415	0.094668	0.095004	9.370475	2.618331	2.624013	29.500000	7.460000	34.673685
5720.599200	1.009838	24.657027	1.009838	11.142810	0.189524	0.094672	10.884569	0.094920	0.095026	9.369820	2.619593	2.623878	29.500000	7.460000	34.673685
5726.599543	1.009838	24.657093	1.009838	11.141845	0.189730	0.094676	10.879669	0.095228	0.095048	9.369400	2.619672	2.623796	29.500000	7.460000	34.673685
5732.599886	1.009838	24.657272	1.009838	11.139255	0.189193	0.094688	10.874819	0.095141	0.095070	9.368822	2.619593	2.623697	29.500000	7.460000	34.673685
5738.599229	1.009838	24.657320	1.009838	11.138561	0.190124	0.094691	10.870879	0.095693	0.095088	9.368261	2.618331	2.623578	29.500000	7.460000	34.673685
5744.599573	1.009838	24.657507	1.009838	11.135857	0.190148	0.094703	10.867219	0.094959	0.095104	9.367429	2.617384	2.623423	29.500000	7.460000	34.673685
5750.599916	1.009838	24.657540	1.009838	11.135375	0.189927	0.094705	10.863648	0.095062	0.095121	9.366633	2.617147	2.623250	29.500000	7.460000	34.673685
5756.599259	1.009838	24.657618	1.009838	11.134250	0.189319	0.094710	10.860552	0.095109	0.095135	9.365836	2.618331	2.623084	29.500000	7.460000	34.673685
5762.599602	1.009838	24.657665	1.009838	11.133564	0.189895	0.094714	10.857906	0.096048	0.095147	9.365178	2.619672	2.622945	29.500000	7.460000	34.673685
5768.599945	1.009838	24.657834	1.009838	11.131115	0.191505	0.094725	10.854664	0.095827	0.095161	9.364559	2.619514	2.622835	29.500000	7.460000	34.673685
5774.599288	1.009838	24.657865	1.009838	11.130659	0.189596	0.094727	10.852027	0.094928	0.095173	9.363865	2.618331	2.622684	29.500000	7.460000	34.673685
5780.599632	1.009838	24.657847	1.009838	11.130932	0.190456	0.094725	10.848409	0.094707	0.095190	9.363218	2.618331	2.622535	29.500000	7.460000	34.673685
5786.599975	1.009838	24.658024	1.009838	11.128358	0.191323	0.094737	10.844849	0.095796	0.095206	9.362427	2.618252	2.622388	29.500000	7.460000	34.673685
5792.599318	1.009838	24.658165	1.009838	11.126320	0.190179	0.094746	10.842047	0.095188	0.095219	9.361650	2.618252	2.622238	29.500000	7.460000	34.673685
5798.599661	1.009838	24.658184	1.009838	11.126040	0.189982	0.094748	10.838777	0.095638	0.095234	9.360982	2.619672	2.622091	29.500000	7.460000	34.673685
5804.600004	1.009838	24.658084	1.009838	11.127486	0.190574	0.094741	10.834576	0.095315	0.095253	9.360420	2.618409	2.621947	29.500000	7.460000	34.673685
5810.599348	1.009838	24.658054	1.009838	11.127924	0.189982	0.094739	10.830057	0.096751	0.095273	9.359757	2.618409	2.621793	29.500000	7.460000	34.673685
5816.599691	1.009838	24.658034	1.009838	11.128215	0.190029	0.094738	10.825809	0.095606	0.095293	9.359105	2.618409	2.621642	29.500000	7.460000	34.673685
5822.600034	1.009838	24.658066	1.009838	11.127754	0.190795	0.094740	10.822142	0.095780	0.095309	9.358442	2.618646	2.621499	29.500000	7.460000	34.673685
5828.599377	1.009838	24.658259	1.009838	11.124961	0.190227	0.094752	10.819884	0.096040	0.095320	9.357649	2.619672	2.621355	29.500000	7.460000	34.673685
5834.599720	1.009838	24.658202	1.009838	11.125788	0.190456	0.094749	10.815714	0.094794	0.095339	9.357023	2.619593	2.621203	29.500000	7.460000	34.673685
5840.600063	1.009838	24.658319	1.009838	11.124088	0.190590	0.094756	10.812357	0.095622	0.095354	9.356210	2.618409	2.621040	29.500000	7.460000	34.673685
5846.599407	1.009838	24.658300	1.009838	11.124367	0.191039	0.094755	10.808196	0.094589	0.095373	9.355370	2.617147	2.620848	29.500000	7.460000	34.673685
5852.599750	1.009838	24.658247	1.009838	11.125124	0.190755	0.094752	10.805450	0.094967	0.095385	9.354590	2.618331	2.620664	29.500000	7.460000	34.673685
5858.599093	1.009838	24.658152	1.009838	11.126503	0.191765	0.094745	10.801036	0.095614	0.095405	9.353982	2.620935	2.620511	29.500000	7.460000	34.673685
5864.599436	1.009838	24.657833	1.009838	11.131123	0.191213	0.094725	10.795578	0.095425	0.095430	9.353699	2.619909	2.620392	29.500000	7.460000	34.673685
5870.599779	1.009838	24.657673	1.009838	11.133440	0.190227	0.094714	10.792070	0.096340	0.095446	9.353422	2.620935	2.620302	29.500000	7.460000	34.673685
5876.599123	1.009838	24.657547	1.009838	11.135359	0.189067	0.094705	10.788040	0.094991	0.095465	9.352993	2.618409	2.620182	29.500000	7.460000	34.673685
5882.599465	1.009838	24.657600	1.009838	11.134507	0.189438	0.094709	10.785408	0.095449	0.095477	9.352359	2.618331	2.620049	29.500000	7.460000	34.673685
5888.599809	1.009838	24.657508	1.009838	11.135838	0.190306	0.094703	10.783257	0.095756	0.095486	9.351768	2.618331	2.619900	29.500000	7.460000	34.673685
5894.599152	1.009838	24.657515	1.009838	11.135744	0.190006	0.094704	10.780915	0.095962	0.095497	9.351127	2.618331	2.619757	29.500000	7.460000	34.673685
5900.599495	1.009838	24.657455	1.009838	11.136606	0.189540	0.094700	10.777849	0.095535	0.095511	9.350811	2.619593	2.619677	29.500000	7.460000	34.673685
5906.599838	1.009838	24.657496	1.009838	11.136008	0.188949	0.094702	10.775935	0.096522	0.095520	9.350493	2.619672	2.619612	29.500000	7.460000	34.673685
5912.599182	1.009838	24.657524	1.009838	11.135603	0.190369	0.094704	10.773800	0.095614	0.095530	9.350164	2.619751	2.619543	29.500000	7.460000	34.673685
5918.599524	1.009838	24.657392	1.009838	11.137418	0.189761	0.094696	10.771222	0.095709	0.095541	9.349942	2.619593	2.619471	29.500000	7.460000	34.673685
5924.599868	1.009838	24.657407	1.009838	11.137199	0.190148	0.094697	10.767897	0.094754	0.095557	9.349666	2.619672	2.619412	29.500000	7.460000	34.673685
5930.599211	1.009838	24.657394	1.009838	11.137496	0.189217	0.094696	10.765610	0.096088	0.095567	9.349512	2.621014	2.619374	29.500000	7.460000	34.673685
5936.599554	1.009838	24.657375	1.009838	11.137746	0.190495	0.094695	10.763856	0.096072	0.095575	9.349441	2.619593	2.619355	29.500000	7.460000	34.673685
5942.599897	1.009838	24.657284	1.009838	11.138961	0.189840	0.094689	10.760361	0.095551	0.095591	9.349275	2.619672	2.619302	29.500000	7.460000	34.673685
5948.599241	1.009838	24.657072	1.009838	11.142403	0.190527	0.094674	10.757069	0.095520	0.095606	9.349415	2.619672	2.619293	29.500000	7.460000	34.673685
5954.599584	1.009838	24.656822	1.009838	11.145775	0.190187	0.094658	10.753843	0.095709	0.095621	9.349476	2.618409	2.619266	29.500000	7.460000	34.673685
5960.599927	1.009838	24.656783	1.009838	11.146166	0.190558	0.094657	10.751971	0.094778	0.095629	9.349312	2.619751	2.619224	29.500000	7.460000	34.673685
5966.599270	1.009838	24.656844	1.009838	11.145599	0.190195	0.094659	10.750114	0.095622	0.095638	9.349036	2.619593	2.619169	29.500000	7.460000	34.673685
5972.599613	1.009838	24.656674	1.009838	11.147721	0.191663	0.094650	10.747358	0.097248	0.095650	9.349101	2.620935	2.619159	29.500000	7.460000	34.673685
5978.599957	1.009838	24.656573	1.009838	11.149770	0.190495	0.094640	10.744500	0.095622	0.095663	9.349332	2.620935	2.619186	29.500000	7.460000	34.673685
5984.599300	1.009838	24.656463	1.009838	11.150996	0.190108	0.094635	10.742530	0.096104	0.095672	9.349426	2.619751	2.619192	29.500000	7.460000	34.673685
5990.599643	1.009838	24.656202	1.009838	11.154972	0.189872	0.094617	10.738857	0.095701	0.095689	9.349706	2.619593	2.619207	29.500000	7.460000	34.673685
5996.599986	1.009838	24.656269	1.009838	11.153595	0.189966	0.094623	10.737192	0.095599	0.095697	9.349677	2.621014	2.619217	29.500000	7.460000	34.673685
6002.599329	1.009838	24.656421	1.009838	11.151464	0.190022	0.094633	10.736270	0.095851	0.095701	9.349779	2.619593	2.619266	29.500000	7.460000	34.673685
6008.599672	1.009838	24.656360	1.009838	11.152411	0.191174	0.094628	10.734948	0.096782	0.095707	9.350050	2.619672	2.619315	29.500000	7.460000	34.673685
6014.600016	1.009838	24.656507	1.009838	11.149936	0.191387	0.094640	10.734532	0.096017	0.095709	9.350122	2.619593	2.619361	29.500000	7.460000	34.673685
6020.599359	1.009838	24.656594	1.009838	11.148741	0.191497	0.094645	10.732120	0.095646	0.095720	9.350113	2.621093	2.619374	29.500000	7.460000	34.673685
6026.599702	1.009838	24.656731	1.009838	11.147167	0.189974	0.094652	10.730861	0.095851	0.095726	9.350057	2.621014	2.619380	29.500000	7.460000	34.673685
6032.600045	1.009838	24.656728	1.009838	11.147582	0.190337	0.094650	10.727796	0.095820	0.095740	9.350127	2.619672	2.619391	29.500000	7.460000	34.673685
6038.599388	1.009838	24.656892	1.009838	11.144623	0.190842	0.094664	10.725902	0.094707	0.095748	9.349989	2.621014	2.619396	29.500000	7.460000	34.673685
6044.599731	1.009838	24.657074	1.009838	11.141916	0.191473	0.094676	10.725265	0.095204	0.095751	9.350094	2.621014	2.619452	29.500000	7.460000	34.673685
6050.599075	1.009838	24.657183	1.009838	11.140534	0.190156	0.094682	10.723917	0.095922	0.095758	9.350354	2.620935	2.619527	29.500000	7.460000	34.673685
6056.599418	1.009838	24.657111	1.009838	11.141563	0.191821	0.094677	10.721460	0.096380	0.095769	9.350621	2.619672	2.619575	29.500000	7.460000	34.673685
6062.599761	1.009838	24.657090	1.009838	11.141461	0.191497	0.094678	10.718830	0.095630	0.095781	9.350712	2.621093	2.619597	29.500000	7.460000	34.673685
6068.599104	1.009838	24.657290	1.009838	11.139062	0.190100	0.094689	10.717093	0.095843	0.095789	9.350535	2.621014	2.619586	29.500000	7.460000	34.673685
6074.599447	1.009838	24.657312	1.009838	11.138498	0.191292	0.094691	10.714981	0.095125	0.095798	9.350692	2.621014	2.619628	29.500000	7.460000	34.673685
6080.599791	1.009838	24.657480	1.009838	11.136084	0.190953	0.094702	10.713345	0.095804	0.095806	9.350608	2.618331	2.619638	29.500000	7.460000	34.673685
6086.599134	1.009838	24.657525	1.009838	11.135411	0.192105	0.094705	10.712613	0.096246	0.095809	9.350677	2.619672	2.619662	29.500000	7.460000	34.673685
6092.599477	1.009838	24.657466	1.009838	11.136665	0.189809	0.094700	10.711044	0.096561	0.095816	9.350816	2.618331	2.619678	29.500000	7.460000	34.673685
6098.599820	1.009838	24.657627	1.009838	11.133835	0.190692	0.094712	10.710004	0.095677	0.095821	9.350675	2.619672	2.619680	29.500000	7.460000	34.673685
6104.599164	1.009838	24.657614	1.009838	11.133828	0.191978	0.094712	10.707889	0.095709	0.095831	9.350688	2.619672	2.619683	29.500000	7.460000	34.673685
6110.599506	1.009838	24.657819	1.009838	11.131336	0.190740	0.094724	10.706216	0.097019	0.095839	9.350692	2.621014	2.619715	29.500000	7.460000	34.673685
6116.599850	1.009838	24.657967	1.009838	11.129194	0.190968	0.094733	10.705653	0.095946	0.095841	9.350709	2.619593	2.619744	29.500000	7.460000	34.673685
6122.599193	1.009838	24.657894	1.009838	11.130250	0.191276	0.094729	10.702752	0.096806	0.095854	9.350736	2.618331	2.619737	29.500000	7.460000	34.673685
6128.599536	1.009838	24.657859	1.009838	11.130750	0.191781	0.094726	10.701349	0.096467	0.095861	9.350695	2.619593	2.619722	29.500000	7.460000	34.673685
6134.599879	1.009838	24.657968	1.009838	11.129168	0.190795	0.094733	10.700483	0.095559	0.095865	9.350681	2.621014	2.619739	29.500000	7.460000	34.673685
6140.599222	1.009838	24.658157	1.009838	11.126439	0.190385	0.094746	10.700102	0.095464	0.095867	9.350579	2.619672	2.619749	29.500000	7.460000	34.673685
6146.599566	1.009838	24.658057	1.009838	11.127887	0.190258	0.094739	10.698605	0.096790	0.095873	9.350697	2.618409	2.619757	29.500000	7.460000	34.673685
6152.599909	1.009838	24.657810	1.009838	11.131464	0.188893	0.094723	10.694276	0.096198	0.095893	9.351005	2.619751	2.619784	29.500000	7.460000	34.673685
6158.599252	1.009838	24.657964	1.009838	11.129228	0.190077	0.094733	10.691677	0.096900	0.095905	9.350822	2.618646	2.619768	29.500000	7.460000	34.673685
6164.599595	1.009838	24.658068	1.009838	11.127729	0.191552	0.094740	10.689485	0.096435	0.095915	9.350675	2.619751	2.619754	29.500000	7.460000	34.673685
6170.599938	1.009838	24.658184	1.009838	11.126036	0.190921	0.094748	10.688983	0.097106	0.095917	9.350497	2.619593	2.619734	29.500000	7.460000	34.673685
6176.599281	1.009838	24.658275	1.009838	11.124725	0.190874	0.094753	10.687944	0.095859	0.095922	9.350471	2.619988	2.619745	29.500000	7.460000	34.673685
6182.599625	1.009838	24.658300	1.009838	11.124365	0.191110	0.094755	10.687627	0.096277	0.095924	9.350569	2.619988	2.619771	29.500000	7.460000	34.673685
6188.599968	1.009838	24.658269	1.009838	11.124816	0.190534	0.094753	10.685152	0.096238	0.095935	9.350787	2.621093	2.619815	29.500000	7.460000	34.673685
6194.599311	1.009838	24.658054	1.009838	11.127920	0.190519	0.094739	10.681527	0.095630	0.095952	9.351190	2.620935	2.619869	29.500000	7.460000	34.673685
6200.599654	1.009838	24.658047	1.009838	11.128022	0.190495	0.094739	10.679578	0.095646	0.095961	9.351343	2.621093	2.619901	29.500000	7.460000	34.673685
6206.599998	1.009838	24.658117	1.009838	11.127008	0.190424	0.094743	10.676875	0.096687	0.095973	9.351302	2.618252	2.619904	29.500000	7.460000	34.673685
6212.599340	1.009838	24.658231	1.009838	11.125356	0.190274	0.094751	10.676408	0.094589	0.095975	9.351240	2.621014	2.619910	29.500000	7.460000	34.673685
6218.599684	1.009838	24.658227	1.009838	11.125425	0.190392	0.094750	10.674609	0.096956	0.095983	9.351363	2.621014	2.619937	29.500000	7.460000	34.673685
6224.600027	1.009838	24.658164	1.009838	11.126333	0.190771	0.094746	10.672423	0.096640	0.095993	9.351420	2.618331	2.619938	29.500000	7.460000	34.673685
6230.599370	1.009838	24.657956	1.009838	11.129341	0.190400	0.094733	10.668668	0.096419	0.096011	9.351418	2.618409	2.619901	29.500000	7.460000	34.673685
6236.599713	1.009838	24.657939	1.009838	11.129596	0.191276	0.094731	10.666512	0.096064	0.096021	9.351265	2.618331	2.619864	29.500000	7.460000	34.673685
6242.600057	1.009838	24.658112	1.009838	11.127087	0.190290	0.094743	10.665909	0.095898	0.096023	9.351029	2.618331	2.619841	29.500000	7.460000	34.673685
6248.599400	1.009838	24.658241	1.009838	11.125218	0.191103	0.094751	10.665217	0.096577	0.096026	9.350837	2.619751	2.619821	29.500000	7.460000	34.673685
6254.599743	1.009838	24.658411	1.009838	11.122756	0.191134	0.094762	10.663301	0.095346	0.096035	9.350621	2.618331	2.619802	29.500000	7.460000	34.673685
6260.599086	1.009838	24.658323	1.009838	11.124034	0.191071	0.094757	10.660985	0.095764	0.096046	9.350648	2.619593	2.619793	29.500000	7.460000	34.673685
6266.599429	1.009838	24.658366	1.009838	11.123411	0.190897	0.094759	10.659610	0.096356	0.096052	9.350672	2.620935	2.619806	29.500000	7.460000	34.673685
6272.599772	1.009838	24.658527	1.009838	11.121078	0.191142	0.094770	10.658034	0.095236	0.096059	9.350701	2.621093	2.619840	29.500000	7.460000	34.673685
6278.599115	1.009838	24.658633	1.009838	11.119533	0.191615	0.094777	10.655971	0.096632	0.096069	9.350623	2.621093	2.619842	29.500000	7.460000	34.673685
6284.599459	1.009838	24.658543	1.009838	11.120840	0.191481	0.094771	10.653581	0.095457	0.096080	9.350721	2.619593	2.619848	29.500000	7.460000	34.673685
6290.599802	1.009838	24.658624	1.009838	11.119668	0.191008	0.094776	10.651229	0.096396	0.096091	9.350731	2.621093	2.619865	29.500000	7.460000	34.673685
6296.599145	1.009838	24.658826	1.009838	11.116738	0.190645	0.094790	10.649384	0.097185	0.096099	9.350699	2.622040	2.619893	29.500000	7.460000	34.673685
6302.599488	1.009838	24.658967	1.009838	11.114691	0.190527	0.094799	10.649542	0.095812	0.096098	9.350686	2.621093	2.619915	29.500000	7.460000	34.673685
6308.599832	1.009838	24.658890	1.009838	11.115813	0.190897	0.094794	10.647797	0.096324	0.096106	9.350867	2.620935	2.619942	29.500000	7.460000	34.673685
6314.599174	1.009838	24.658775	1.009838	11.117504	0.191899	0.094786	10.645962	0.096877	0.096115	9.351100	2.622118	2.619974	29.500000	7.460000	34.673685
6320.599518	1.009838	24.658679	1.009838	11.118870	0.191103	0.094780	10.642730	0.096790	0.096130	9.351388	2.622197	2.620022	29.500000	7.460000	34.673685
6326.599861	1.009838	24.658734	1.009838	11.117983	0.191292	0.094784	10.640916	0.096538	0.096138	9.351406	2.621014	2.620036	29.500000	7.460000	34.673685
6332.599204	1.009838	24.658700	1.009838	11.118608	0.190937	0.094781	10.636928	0.097398	0.096156	9.351399	2.619672	2.620027	29.500000	7.460000	34.673685
6338.599547	1.009838	24.658567	1.009838	11.120274	0.191757	0.094774	10.634720	0.096861	0.096167	9.351474	2.619672	2.620024	29.500000	7.460000	34.673685
6344.599891	1.009838	24.658693	1.009838	11.118470	0.191103	0.094782	10.633747	0.096009	0.096171	9.351231	2.618331	2.619990	29.500000	7.460000	34.673685
6350.599234	1.009838	24.658669	1.009838	11.119051	0.191237	0.094779	10.631622	0.096585	0.096181	9.351007	2.617226	2.619932	29.500000	7.460000	34.673685
6356.599577	1.009838	24.658675	1.009838	11.119148	0.190550	0.094779	10.630286	0.096198	0.096187	9.350814	2.618488	2.619889	29.500000	7.460000	34.673685
6362.599920	1.009838	24.658512	1.009838	11.121251	0.191513	0.094769	10.626921	0.097382	0.096202	9.350708	2.617147	2.619839	29.500000	7.460000	34.673685
6368.599263	1.009838	24.658388	1.009838	11.122867	0.191615	0.094762	10.624061	0.096498	0.096216	9.350620	2.618252	2.619800	29.500000	7.460000	34.673685
6374.599607	1.009838	24.658284	1.009838	11.124646	0.190921	0.094754	10.624001	0.096372	0.096216	9.350597	2.621014	2.619774	29.500000	7.460000	34.673685
6380.599949	1.009838	24.658344	1.009838	11.123769	0.191647	0.094758	10.624228	0.095575	0.096215	9.350721	2.620935	2.619812	29.500000	7.460000	34.673685
6386.599293	1.009838	24.658413	1.009838	11.123065	0.190479	0.094761	10.621876	0.097074	0.096226	9.350817	2.621014	2.619842	29.500000	7.460000	34.673685
6392.599636	1.009838	24.658429	1.009838	11.122221	0.191387	0.094765	10.620780	0.096175	0.096231	9.350935	2.621014	2.619879	29.500000	7.460000	34.673685
6398.599979	1.009838	24.658450	1.009838	11.122090	0.191805	0.094765	10.619471	0.096435	0.096237	9.351050	2.620935	2.619907	29.500000	7.460000	34.673685
6404.599322	1.009838	24.658608	1.009838	11.119829	0.191110	0.094776	10.620078	0.096238	0.096234	9.351049	2.621014	2.619934	29.500000	7.460000	34.673685
6410.599666	1.009838	24.658630	1.009838	11.119400	0.190503	0.094778	10.619198	0.096514	0.096238	9.351154	2.622197	2.619963	29.500000	7.460000	34.673685
6416.600008	1.009838	24.658625	1.009838	11.119639	0.189769	0.094776	10.617021	0.096609	0.096248	9.351300	2.621014	2.619993	29.500000	7.460000	34.673685
6422.599352	1.009838	24.658817	1.009838	11.117316	0.190913	0.094787	10.616810	0.096601	0.096249	9.351437	2.622118	2.620051	29.500000	7.460000	34.673685
6428.599695	1.009838	24.658716	1.009838	11.118222	0.191331	0.094783	10.614898	0.096222	0.096258	9.351760	2.620935	2.620113	29.500000	7.460000	34.673685
6434.600039	1.009838	24.658651	1.009838	11.119459	0.189753	0.094777	10.612857	0.096530	0.096267	9.351872	2.621014	2.620123	29.500000	7.460000	34.673685
6440.599381	1.009838	24.658486	1.009838	11.121716	0.190929	0.094767	10.610576	0.096230	0.096278	9.352069	2.620856	2.620140	29.500000	7.460000	34.673685
6446.599725	1.009838	24.658525	1.009838	11.121173	0.191134	0.094770	10.610092	0.095851	0.096280	9.352150	2.618409	2.620165	29.500000	7.460000	34.673685
6452.600068	1.009838	24.658644	1.009838	11.119404	0.190519	0.094778	10.609704	0.095827	0.096282	9.352017	2.619593	2.620157	29.500000	7.460000	34.673685
6458.599411	1.009838	24.658751	1.009838	11.117850	0.190598	0.094785	10.608414	0.096451	0.096288	9.352040	2.621014	2.620181	29.500000	7.460000	34.673685
6464.599754	1.009838	24.658885	1.009838	11.115705	0.191442	0.094794	10.607323	0.096285	0.096293	9.352135	2.622671	2.620228	29.500000	7.460000	34.673685
6470.599097	1.009838	24.658973	1.009838	11.114507	0.191402	0.094800	10.607655	0.096340	0.096291	9.352232	2.621014	2.620264	29.500000	7.460000	34.673685
6476.599441	1.009838	24.658923	1.009838	11.115417	0.191529	0.094796	10.605814	0.096719	0.096300	9.352355	2.619593	2.620281	29.500000	7.460000	34.673685
6482.599784	1.009838	24.659033	1.009838	11.113687	0.191118	0.094803	10.606750	0.096498	0.096295	9.352269	2.621014	2.620283	29.500000	7.460000	34.673685
6488.599127	1.009838	24.659153	1.009838	11.112012	0.191655	0.094811	10.605505	0.096553	0.096301	9.352257	2.622276	2.620300	29.500000	7.460000	34.673685
6494.599470	1.009838	24.658973	1.009838	11.114614	0.191947	0.094799	10.603448	0.096253	0.096310	9.352596	2.623460	2.620346	29.500000	7.460000	34.673685
6500.599813	1.009838	24.658943	1.009838	11.115050	0.190511	0.094797	10.601846	0.097200	0.096318	9.352829	2.622276	2.620392	29.500000	7.460000	34.673685
6506.599156	1.009838	24.658880	1.009838	11.115951	0.192412	0.094793	10.599861	0.097129	0.096327	9.353147	2.622197	2.620454	29.500000	7.460000	34.673685
6512.599500	1.009838	24.658968	1.009838	11.114679	0.191773	0.094799	10.598493	0.096427	0.096333	9.353280	2.622197	2.620498	29.500000	7.460000	34.673685
6518.599843	1.009838	24.658958	1.009838	11.114833	0.190203	0.094798	10.596548	0.096956	0.096342	9.353364	2.621014	2.620515	29.500000	7.460000	34.673685
6524.599186	1.009838	24.659206	1.009838	11.111237	0.190937	0.094814	10.593665	0.096317	0.096355	9.353280	2.621093	2.620540	29.500000	7.460000	34.673685
6530.599529	1.009838	24.659362	1.009838	11.108977	0.190424	0.094825	10.591452	0.097334	0.096366	9.353394	2.621014	2.620593	29.500000	7.460000	34.673685
6536.599872	1.009838	24.659301	1.009838	11.109864	0.191308	0.094821	10.589618	0.096577	0.096374	9.353678	2.621014	2.620646	29.500000	7.460000	34.673685
6542.599216	1.009838	24.659167	1.009838	11.111806	0.191347	0.094812	10.586542	0.094399	0.096388	9.354017	2.620935	2.620699	29.500000	7.460000	34.673685
6548.599559	1.009838	24.659074	1.009838	11.113152	0.191852	0.094806	10.583745	0.097082	0.096401	9.354288	2.622197	2.620744	29.500000	7.460000	34.673685
6554.599902	1.009838	24.659043	1.009838	11.113592	0.192199	0.094804	10.581248	0.096719	0.096413	9.354708	2.623460	2.620834	29.500000	7.460000	34.673685
6560.599245	1.009838	24.658923	1.009838	11.115328	0.191466	0.094796	10.577512	0.096206	0.096430	9.355202	2.623381	2.620924	29.500000	7.460000	34.673685
6566.599588	1.009838	24.658755	1.009838	11.117771	0.191394	0.094785	10.573713	0.096474	0.096447	9.355622	2.622197	2.620988	29.500000	7.460000	34.673685
6572.599931	1.009838	24.658726	1.009838	11.118194	0.191150	0.094783	10.571828	0.096774	0.096456	9.355774	2.623302	2.621018	29.500000	7.460000	34.673685
6578.599275	1.009838	24.658829	1.009838	11.116697	0.189643	0.094790	10.570635	0.097098	0.096462	9.355814	2.622197	2.621044	29.500000	7.460000	34.673685
6584.599618	1.009838	24.659024	1.009838	11.113874	0.190953	0.094803	10.569283	0.096332	0.096468	9.355742	2.621014	2.621062	29.500000	7.460000	34.673685
6590.599961	1.009838	24.659167	1.009838	11.111797	0.192105	0.094812	10.568291	0.096143	0.096472	9.355746	2.622197	2.621088	29.500000	7.460000	34.673685
6596.599304	1.009838	24.659130	1.009838	11.112328	0.191142	0.094810	10.566526	0.096687	0.096481	9.355889	2.622197	2.621114	29.500000	7.460000	34.673685
6602.599648	1.009838	24.659161	1.009838	11.111886	0.191087	0.094812	10.564661	0.095993	0.096489	9.355992	2.622197	2.621142	29.500000	7.460000	34.673685
6608.599990	1.009838	24.659198	1.009838	11.111347	0.191410	0.094814	10.563473	0.097145	0.096495	9.356068	2.622592	2.621166	29.500000	7.460000	34.673685
6614.599334	1.009838	24.659225	1.009838	11.110957	0.192460	0.094816	10.562054	0.097137	0.096501	9.356108	2.622197	2.621179	29.500000	7.460000	34.673685
6620.599677	1.009838	24.659312	1.009838	11.109700	0.190763	0.094821	10.561006	0.097090	0.096506	9.356049	2.622513	2.621181	29.500000	7.460000	34.673685
6626.600020	1.009838	24.659316	1.009838	11.109643	0.190227	0.094822	10.560410	0.096719	0.096509	9.356045	2.621014	2.621181	29.500000	7.460000	34.673685
6632.599363	1.009838	24.659332	1.009838	11.109413	0.190890	0.094823	10.557913	0.097634	0.096520	9.356142	2.620935	2.621206	29.500000	7.460000	34.673685
6638.599706	1.009838	24.659451	1.009838	11.107687	0.191970	0.094831	10.557682	0.096758	0.096521	9.356169	2.621014	2.621233	29.500000	7.460000	34.673685
6644.600049	1.009838	24.659707	1.009838	11.103969	0.191434	0.094847	10.558314	0.096482	0.096519	9.356201	2.622197	2.621286	29.500000	7.460000	34.673685
6650.599393	1.009838	24.659863	1.009838	11.101722	0.191521	0.094858	10.557656	0.096490	0.096522	9.356437	2.622197	2.621367	29.500000	7.460000	34.673685
6656.599736	1.009838	24.660022	1.009838	11.099413	0.191118	0.094868	10.558025	0.096111	0.096520	9.356758	2.622197	2.621466	29.500000	7.460000	34.673685
6662.599079	1.009838	24.660191	1.009838	11.096969	0.191615	0.094879	10.559044	0.096680	0.096515	9.357047	2.622276	2.621561	29.500000	7.460000	34.673685
6668.599422	1.009838	24.660278	1.009838	11.095706	0.191371	0.094885	10.559290	0.095985	0.096514	9.357347	2.621093	2.621643	29.500000	7.460000	34.673685
6674.599765	1.009838	24.660234	1.009838	11.096336	0.190890	0.094882	10.558202	0.096514	0.096519	9.357605	2.622118	2.621693	29.500000	7.460000	34.673685
6680.599109	1.009838	24.660149	1.009838	11.097578	0.191260	0.094876	10.557485	0.097074	0.096522	9.357786	2.622513	2.621719	29.500000	7.460000	34.673685
6686.599452	1.009838	24.660147	1.009838	11.097600	0.190203	0.094876	10.556495	0.096324	0.096527	9.357929	2.623776	2.621751	29.500000	7.460000	34.673685
6692.599795	1.009838	24.660149	1.009838	11.097565	0.191355	0.094876	10.556689	0.095954	0.096526	9.358144	2.623381	2.621800	29.500000	7.460000	34.673685
6698.599138	1.009838	24.660087	1.009838	11.098463	0.190661	0.094872	10.555769	0.096040	0.096530	9.358417	2.623302	2.621851	29.500000	7.460000	34.673685
6704.599482	1.009838	24.660032	1.009838	11.099266	0.190929	0.094869	10.555144	0.096545	0.096533	9.358648	2.622197	2.621892	29.500000	7.460000	34.673685
6710.599824	1.009838	24.660249	1.009838	11.096129	0.189840	0.094883	10.555923	0.096285	0.096530	9.358554	2.622118	2.621909	29.500000	7.460000	34.673685
6716.599168	1.009838	24.660293	1.009838	11.095479	0.190669	0.094886	10.556789	0.096277	0.096526	9.358672	2.623460	2.621944	29.500000	7.460000	34.673685
6722.599511	1.009838	24.660176	1.009838	11.097187	0.191868	0.094878	10.554917	0.096332	0.096534	9.358898	2.623381	2.621974	29.500000	7.460000	34.673685
6728.599854	1.009838	24.660140	1.009838	11.097708	0.192215	0.094876	10.554012	0.095551	0.096538	9.359098	2.623460	2.622013	29.500000	7.460000	34.673685
6734.599197	1.009838	24.660064	1.009838	11.098806	0.191355	0.094871	10.553471	0.095993	0.096541	9.359304	2.621014	2.622045	29.500000	7.460000	34.673685
6740.599540	1.009838	24.660061	1.009838	11.098841	0.191923	0.094871	10.552278	0.096175	0.096546	9.359342	2.622197	2.622054	29.500000	7.460000	34.673685
6746.599884	1.009838	24.659954	1.009838	11.100402	0.191655	0.094864	10.551622	0.096735	0.096549	9.359639	2.622197	2.622103	29.500000	7.460000	34.673685
6752.599227	1.009838	24.659834	1.009838	11.102140	0.191292	0.094856	10.550849	0.096293	0.096553	9.360040	2.622197	2.622172	29.500000	7.460000	34.673685
6758.599570	1.009838	24.659708	1.009838	11.103843	0.192034	0.094848	10.551877	0.096727	0.096548	9.360314	2.622197	2.622212	29.500000	7.460000	34.673685
6764.599913	1.009838	24.659636	1.009838	11.105244	0.191300	0.094842	10.553101	0.097082	0.096543	9.360409	2.622197	2.622216	29.500000	7.460000	34.673685
6770.599257	1.009838	24.659584	1.009838	11.105735	0.190432	0.094839	10.554554	0.096056	0.096536	9.360462	2.622197	2.622222	29.500000	7.460000	34.673685
6776.599599	1.009838	24.659666	1.009838	11.104538	0.191789	0.094845	10.556978	0.096403	0.096525	9.360547	2.622197	2.622257	29.500000	7.460000	34.673685
6782.599943	1.009838	24.659627	1.009838	11.105134	0.190211	0.094842	10.559824	0.096372	0.096512	9.360705	2.621014	2.622284	29.500000	7.460000	34.673685
6788.599286	1.009838	24.659693	1.009838	11.104197	0.190858	0.094846	10.563858	0.096056	0.096493	9.360687	2.622513	2.622291	29.500000	7.460000	34.673685
6794.599629	1.009838	24.659573	1.009838	11.105771	0.190700	0.094839	10.566777	0.096222	0.096479	9.360675	2.622197	2.622269	29.500000	7.460000	34.673685
6800.599972	1.009838	24.659685	1.009838	11.104320	0.190874	0.094846	10.572204	0.097137	0.096454	9.360497	2.622118	2.622247	29.500000	7.460000	34.673685
6806.599315	1.009838	24.659577	1.009838	11.105852	0.191552	0.094839	10.576033	0.095977	0.096437	9.360581	2.622276	2.622248	29.500000	7.460000	34.673685
6812.599658	1.009838	24.659492	1.009838	11.107060	0.191221	0.094833	10.581097	0.096017	0.096413	9.360644	2.622118	2.622247	29.500000	7.460000	34.673685
6818.600002	1.009838	24.659540	1.009838	11.106470	0.190976	0.094836	10.587912	0.095212	0.096382	9.360668	2.623460	2.622260	29.500000	7.460000	34.673685
6824.599345	1.009838	24.659565	1.009838	11.105780	0.191063	0.094839	10.596275	0.094999	0.096343	9.360727	2.621014	2.622281	29.500000	7.460000	34.673685
6830.599688	1.009838	24.659589	1.009838	11.105649	0.190463	0.094840	10.604875	0.094786	0.096304	9.360740	2.621093	2.622286	29.500000	7.460000	34.673685
6836.600031	1.009838	24.659546	1.009838	11.106456	0.190164	0.094836	10.613960	0.096206	0.096262	9.360853	2.622197	2.622302	29.500000	7.460000	34.673685
6842.599374	1.009838	24.659546	1.009838	11.106427	0.190274	0.094836	10.622640	0.095954	0.096222	9.360954	2.622276	2.622325	29.500000	7.460000	34.673685
6848.599718	1.009838	24.659588	1.009838	11.105373	0.190069	0.094841	10.632535	0.095030	0.096177	9.360943	2.622434	2.622335	29.500000	7.460000	34.673685
6854.600061	1.009838	24.659521	1.009838	11.106768	0.190605	0.094835	10.641118	0.096648	0.096137	9.360929	2.622118	2.622315	29.500000	7.460000	34.673685
6860.599404	1.009838	24.659376	1.009838	11.109124	0.190479	0.094824	10.650767	0.095812	0.096093	9.360923	2.622197	2.622285	29.500000	7.460000	34.673685
6866.599747	1.009838	24.659359	1.009838	11.108935	0.190392	0.094825	10.661056	0.095741	0.096046	9.360937	2.623302	2.622291	29.500000	7.460000	34.673685
6872.599091	1.009838	24.659438	1.009838	11.107789	0.190100	0.094830	10.673892	0.094502	0.095987	9.360909	2.623776	2.622298	29.500000	7.460000	34.673685
6878.599433	1.009838	24.659402	1.009838	11.108240	0.190519	0.094828	10.685713	0.095220	0.095932	9.361160	2.626222	2.622350	29.500000	7.460000	34.673685
6884.599777	1.009838	24.659509	1.009838	11.106839	0.190077	0.094834	10.699054	0.094944	0.095871	9.361395	2.624723	2.622419	29.500000	7.460000	34.673685
6890.599120	1.009838	24.659447	1.009838	11.107756	0.190243	0.094830	10.711245	0.095520	0.095816	9.361671	2.623460	2.622470	29.500000	7.460000	34.673685
6896.599463	1.009838	24.659391	1.009838	11.108362	0.190669	0.094827	10.721907	0.095228	0.095767	9.361952	2.625827	2.622526	29.500000	7.460000	34.673685
6902.599806	1.009838	24.659337	1.009838	11.109162	0.189532	0.094824	10.732491	0.095575	0.095718	9.362283	2.627090	2.622590	29.500000	7.460000	34.673685
6908.599150	1.009838	24.659403	1.009838	11.108752	0.188885	0.094826	10.742278	0.095654	0.095674	9.362694	2.627090	2.622688	29.500000	7.460000	34.673685
6914.599493	1.009838	24.659305	1.009838	11.109671	0.190779	0.094822	10.751605	0.094297	0.095631	9.363196	2.627090	2.622790	29.500000	7.460000	34.673685
6920.599836	1.009838	24.659224	1.009838	11.111102	0.190329	0.094815	10.759841	0.095299	0.095593	9.363744	2.627011	2.622896	29.500000	7.460000	34.673685
6926.599179	1.009838	24.658906	1.009838	11.115596	0.190037	0.094795	10.767222	0.096269	0.095560	9.364462	2.627090	2.623003	29.500000	7.460000	34.673685
6932.599522	1.009838	24.658720	1.009838	11.118214	0.190645	0.094783	10.774613	0.095859	0.095526	9.365141	2.625827	2.623126	29.500000	7.460000	34.673685
6938.599865	1.009838	24.658433	1.009838	11.122481	0.189233	0.094764	10.780942	0.094920	0.095497	9.365811	2.625749	2.623225	29.500000	7.460000	34.673685
6944.599209	1.009838	24.658431	1.009838	11.122378	0.190219	0.094764	10.787914	0.095717	0.095465	9.366106	2.624565	2.623291	29.500000	7.460000	34.673685
6950.599552	1.009838	24.658298	1.009838	11.124440	0.189816	0.094755	10.793637	0.095583	0.095439	9.366432	2.624565	2.623339	29.500000	7.460000	34.673685
6956.599895	1.009838	24.658372	1.009838	11.123336	0.190314	0.094760	10.801156	0.095646	0.095405	9.366593	2.625749	2.623389	29.500000	7.460000	34.673685
6962.599238	1.009838	24.658423	1.009838	11.122641	0.190164	0.094763	10.806210	0.095346	0.095382	9.366897	2.627090	2.623466	29.500000	7.460000	34.673685
6968.599581	1.009838	24.658313	1.009838	11.123940	0.190290	0.094757	10.809879	0.095173	0.095365	9.367381	2.625906	2.623559	29.500000	7.460000	34.673685
6974.599925	1.009838	24.658363	1.009838	11.123659	0.190392	0.094758	10.813165	0.095622	0.095350	9.367566	2.623460	2.623604	29.500000	7.460000	34.673685
6980.599267	1.009838	24.658280	1.009838	11.124620	0.190495	0.094754	10.814771	0.096064	0.095343	9.367728	2.623381	2.623629	29.500000	7.460000	34.673685
6986.599611	1.009838	24.658504	1.009838	11.121351	0.190424	0.094769	10.816075	0.095180	0.095337	9.367611	2.623460	2.623642	29.500000	7.460000	34.673685
6992.599954	1.009838	24.658709	1.009838	11.118365	0.190700	0.094782	10.816775	0.096040	0.095334	9.367450	2.623381	2.623642	29.500000	7.460000	34.673685
6998.599297	1.009838	24.658855	1.009838	11.116399	0.191032	0.094791	10.816767	0.096064	0.095334	9.367294	2.623381	2.623631	29.500000	7.460000	34.673685
7004.600640	1.009838	24.659028	1.009838	11.113770	0.189880	0.094803	10.817870	0.095259	0.095329	9.367185	2.624644	2.623638	29.500000	7.460000	34.673685
7010.600984	1.009838	24.659106	1.009838	11.112680	0.190037	0.094808	10.817075	0.095393	0.095332	9.367334	2.624565	2.623685	29.500000	7.460000	34.673685
7016.599327	1.009838	24.659184	1.009838	11.111549	0.190605	0.094813	10.815201	0.095346	0.095341	9.367309	2.623460	2.623693	29.500000	7.460000	34.673685
7022.599670	1.009838	24.659155	1.009838	11.111971	0.190385	0.094811	10.812372	0.095007	0.095354	9.367241	2.622197	2.623672	29.500000	7.460000	34.673685
7028.600013	1.009838	24.659279	1.009838	11.110180	0.190408	0.094819	10.809834	0.095867	0.095365	9.366967	2.621014	2.623631	29.500000	7.460000	34.673685
7034.599356	1.009838	24.659349	1.009838	11.109164	0.190897	0.094824	10.806601	0.094360	0.095380	9.366769	2.621014	2.623600	29.500000	7.460000	34.673685
7040.599699	1.009838	24.659527	1.009838	11.106577	0.190100	0.094836	10.804170	0.096238	0.095391	9.366681	2.623460	2.623612	29.500000	7.460000	34.673685
7046.600043	1.009838	24.659708	1.009838	11.103958	0.190440	0.094847	10.801798	0.094841	0.095402	9.366682	2.624565	2.623644	29.500000	7.460000	34.673685
7052.599386	1.009838	24.659756	1.009838	11.103267	0.190187	0.094851	10.798098	0.095749	0.095419	9.366771	2.623460	2.623672	29.500000	7.460000	34.673685
7058.599729	1.009838	24.659730	1.009838	11.103640	0.191079	0.094849	10.794378	0.096829	0.095436	9.366925	2.623381	2.623702	29.500000	7.460000	34.673685
7064.599072	1.009838	24.659746	1.009838	11.103416	0.190479	0.094850	10.791431	0.096324	0.095449	9.367020	2.623460	2.623726	29.500000	7.460000	34.673685
7070.599415	1.009838	24.659835	1.009838	11.102126	0.189375	0.094856	10.789270	0.095520	0.095459	9.367001	2.622118	2.623737	29.500000	7.460000	34.673685
7076.845773	1.009838	24.660022	1.009838	11.099623	0.190511	0.094867	10.786082	0.094628	0.095474	9.366775	2.621093	2.623716	29.500000	7.460000	34.673685
