LabVIEW Measurement	
Writer_Version	2
Reader_Version	2
Separator	Tab
Decimal_Separator	.
Multi_Headings	No
X_Columns	One
Time_Pref	Absolute
Operator	MOATS
Date	2019/10/23
Time	10:10:51.8337993621826171875
***End_of_Header***	
	
Channels	15															
Samples	1	1	1	1	1	1	1	1	1	1	1	1	1	1	1	
Date	2019/10/23	2019/10/23	2019/10/23	2019/10/23	2019/10/23	2019/10/23	2019/10/23	2019/10/23	2019/10/23	2019/10/23	2019/10/23	2019/10/23	2019/10/23	2019/10/23	2019/10/23	
Time	10:10:51.8337993621826171875	10:10:51.8337993621826171875	10:10:51.8337993621826171875	10:10:51.8337993621826171875	10:10:51.8337993621826171875	10:10:51.8337993621826171875	10:10:51.8337993621826171875	10:10:51.8337993621826171875	10:10:51.8337993621826171875	10:10:51.8337993621826171875	10:10:51.8337993621826171875	10:10:51.8337993621826171875	10:10:51.8337993621826171875	10:10:51.8337993621826171875	10:10:51.8337993621826171875	
X_Dimension	Time	Time	Time	Time	Time	Time	Time	Time	Time	Time	Time	Time	Time	Time	Time	
X0	0.0000000000000000E+0	0.0000000000000000E+0	0.0000000000000000E+0	0.0000000000000000E+0	0.0000000000000000E+0	0.0000000000000000E+0	0.0000000000000000E+0	0.0000000000000000E+0	0.0000000000000000E+0	0.0000000000000000E+0	0.0000000000000000E+0	0.0000000000000000E+0	0.0000000000000000E+0	0.0000000000000000E+0	0.0000000000000000E+0	
Delta_X	1.000000	1.000000	1.000000	1.000000	1.000000	1.000000	1.000000	1.000000	1.000000	1.000000	1.000000	1.000000	1.000000	1.000000	1.000000	
***End_of_Header***																
X_Value	Untitled	Untitled 1	Untitled 2	Untitled 3	Untitled 4	Untitled 5	Untitled 6	Untitled 7	Untitled 8	Untitled 9	Untitled 10	Untitled 11	Untitled 12	Untitled 13	Untitled 14	Comment
0.000000	7.631726	0.063318	0.046357	11.248565	0.186245	0.094251	11.601760	0.084499	0.092065	6.978927	3.271825	3.274747	28.800000	7.650429	22.365096
9.995572	7.631994	0.040906	0.046367	11.240007	0.197518	0.094289	11.600994	0.091783	0.092068	6.979049	3.271747	3.274905	28.800000	7.650930	22.339324
39.996288	7.632078	0.022665	0.046360	11.215734	0.191842	0.094398	11.591513	0.090136	0.092109	6.978800	3.261733	3.275076	28.800000	7.651430	22.313607
69.996004	7.631073	0.022429	0.046281	11.175010	0.193884	0.094582	11.586552	0.097033	0.092131	6.975792	3.269381	3.274184	28.800000	7.651930	22.287947
99.995719	7.630666	0.034978	0.046270	11.198291	0.185796	0.094477	11.552163	0.095000	0.092282	6.975889	3.269381	3.273954	28.800000	7.652429	22.262353
129.995436	7.634898	0.052029	0.046501	11.182248	0.186293	0.094549	11.537948	0.093699	0.092344	6.974278	3.266858	3.273406	28.800000	7.652929	22.236708
159.995152	7.636015	0.064800	0.046580	11.213304	0.187081	0.094409	11.467587	0.093565	0.092654	6.971818	3.261812	3.271915	28.800000	7.653430	22.211107
189.995867	7.636994	0.040189	0.046655	11.252485	0.181799	0.094233	11.448131	0.089505	0.092740	6.967777	3.259446	3.269610	28.800000	7.653929	22.185608
219.995583	7.637166	0.023453	0.046701	11.322655	0.188768	0.093918	11.414836	0.095670	0.092887	6.964569	3.255583	3.267317	28.800000	7.654429	22.160046
249.995299	7.637412	0.037052	0.046732	11.354568	0.190045	0.093776	11.414061	0.088252	0.092890	6.959388	3.246909	3.264577	28.800000	7.654929	22.134543
279.996015	7.638979	0.069285	0.046834	11.382920	0.186813	0.093649	11.407519	0.088969	0.092919	6.953107	3.244386	3.261378	28.800000	7.655430	22.109071
309.995731	7.639272	0.057011	0.046874	11.427656	0.187002	0.093450	11.426028	0.092784	0.092837	6.948617	3.245648	3.258804	28.800000	7.655930	22.083595
339.995447	7.639220	0.023122	0.046875	11.435553	0.181579	0.093414	11.445827	0.093383	0.092750	6.943390	3.244465	3.256336	28.800000	7.656429	22.058250
369.995163	7.635402	0.058958	0.046665	11.444708	0.186781	0.093374	11.467253	0.092564	0.092655	6.938734	3.236975	3.254094	28.800000	7.656929	22.032854
399.995879	7.635856	0.047678	0.046673	11.412109	0.188894	0.093519	11.500308	0.091823	0.092510	6.929807	3.230667	3.250406	28.800000	7.657430	22.007485
429.995595	7.634404	0.059857	0.046590	11.408816	0.187491	0.093534	11.533631	0.091310	0.092363	6.920264	3.219628	3.246090	28.800000	7.657930	21.982129
459.995310	7.636501	0.060567	0.046680	11.353952	0.185725	0.093778	11.580976	0.094747	0.092156	6.906158	3.199837	3.240321	28.800000	7.658429	21.956912
489.996027	7.638163	0.050200	0.046750	11.308349	0.187940	0.093982	11.596677	0.096332	0.092087	6.891777	3.195027	3.234279	28.800000	7.658929	21.931641
519.995742	7.637113	0.026409	0.046669	11.267741	0.183817	0.094164	11.598763	0.091665	0.092078	6.876452	3.186669	3.227768	28.800000	7.659429	21.906379
549.995458	7.638126	0.066227	0.046724	11.261193	0.186182	0.094194	11.585315	0.093652	0.092137	6.861605	3.179652	3.221075	28.800000	7.659930	21.881160
579.995174	7.638485	0.024116	0.046745	11.263537	0.186174	0.094183	11.550803	0.094731	0.092288	6.846440	3.171688	3.214131	28.800000	7.660430	21.855979
609.995890	7.640921	0.042239	0.046872	11.244137	0.191487	0.094270	11.545981	0.092422	0.092309	6.828450	3.155603	3.206150	28.800000	7.660930	21.830821
639.995606	7.644984	0.070184	0.047099	11.238323	0.188366	0.094297	11.541910	0.088196	0.092327	6.807757	3.141805	3.196778	28.800000	7.661429	21.805761
669.995322	7.645818	0.035688	0.047167	11.278008	0.185386	0.094118	11.517337	0.093604	0.092435	6.785964	3.131712	3.186407	28.800000	7.661929	21.780661
699.996038	7.645882	0.046756	0.047205	11.345257	0.189225	0.093817	11.490702	0.095748	0.092552	6.764969	3.125562	3.176004	28.800000	7.662429	21.755600
729.995754	7.647194	0.037091	0.047287	11.361196	0.185559	0.093746	11.489431	0.093864	0.092558	6.744259	3.126745	3.166377	28.800000	7.662930	21.730514
759.995470	7.649070	0.066282	0.047427	11.426313	0.185315	0.093456	11.459776	0.093226	0.092688	6.728763	3.122960	3.158548	28.800000	7.663429	21.705571
789.995185	7.651177	0.067448	0.047574	11.480459	0.188728	0.093215	11.454629	0.095945	0.092711	6.713095	3.115864	3.150763	28.800000	7.663929	21.680584
819.995901	7.653505	0.041348	0.047697	11.463919	0.183573	0.093288	11.494589	0.097349	0.092535	6.695136	3.106717	3.142769	28.800000	7.664429	21.655627
849.995617	7.655259	0.041151	0.047777	11.428173	0.187759	0.093447	11.528850	0.092059	0.092384	6.676734	3.101750	3.134800	28.800000	7.664930	21.630674
879.995333	7.657005	0.024376	0.047860	11.397214	0.182059	0.093585	11.570640	0.094944	0.092201	6.659308	3.094259	3.127219	28.800000	7.665430	21.605776
909.996049	7.659336	0.050051	0.047970	11.354352	0.188484	0.093777	11.600552	0.091145	0.092070	6.641711	3.084246	3.119702	28.800000	7.665930	21.580914
939.995765	7.659730	0.070176	0.047963	11.300843	0.184818	0.094016	11.625823	0.088543	0.091959	6.624850	3.079357	3.112647	28.800000	7.666429	21.556137
969.995481	7.658061	0.065714	0.047861	11.285964	0.187278	0.094083	11.612636	0.100920	0.092017	6.611587	3.073049	3.106776	28.800000	7.666929	21.531317
999.995197	7.658925	0.035152	0.047895	11.255849	0.188003	0.094218	11.613058	0.085382	0.092015	6.597665	3.066820	3.100783	28.800000	7.667429	21.506538
1029.995913	7.659498	0.071027	0.047930	11.262661	0.187105	0.094187	11.599398	0.093786	0.092075	6.583919	3.055466	3.094430	28.800000	7.667930	21.481781
1059.995628	7.659860	0.053007	0.047965	11.289402	0.186277	0.094067	11.580432	0.094779	0.092158	6.568014	3.048054	3.086860	28.800000	7.668429	21.457107
1089.995345	7.659471	0.048600	0.047974	11.349189	0.188445	0.093800	11.545777	0.092374	0.092310	6.553041	3.041116	3.079327	28.800000	7.668929	21.432408
1119.996060	7.659104	0.033181	0.047959	11.360876	0.185441	0.093747	11.553800	0.093115	0.092275	6.538087	3.044349	3.072374	28.800000	7.669429	21.407748
1149.995776	7.659028	0.037761	0.047983	11.414043	0.187168	0.093510	11.543964	0.089292	0.092318	6.525766	3.041825	3.066129	28.800000	7.669930	21.383082
1179.995492	7.658218	0.026717	0.047975	11.488011	0.181500	0.093181	11.536312	0.091815	0.092351	6.513735	3.033389	3.059771	28.800000	7.670430	21.358461
1209.995208	7.657386	0.047646	0.047970	11.568827	0.184866	0.092824	11.527410	0.091239	0.092391	6.503655	3.035833	3.054225	28.800000	7.670929	21.333954
1239.995924	7.656642	0.024904	0.047943	11.597633	0.185457	0.092697	11.558475	0.091578	0.092254	6.494473	3.035833	3.049700	28.800000	7.671429	21.309391
1269.995640	7.657671	0.036776	0.048006	11.607214	0.185607	0.092654	11.577316	0.097293	0.092172	6.484866	3.032127	3.045207	28.800000	7.671930	21.284830
1299.995356	7.658526	0.031068	0.048044	11.587560	0.184014	0.092741	11.615485	0.092067	0.092005	6.475675	3.028500	3.041248	28.800000	7.672430	21.260329
1329.996072	7.659903	0.041450	0.048105	11.554208	0.181886	0.092888	11.644436	0.093778	0.091878	6.466653	3.023375	3.037529	28.800000	7.672930	21.235860
1359.995788	7.662821	0.066069	0.048221	11.459223	0.185165	0.093309	11.709524	0.091933	0.091594	6.457991	3.024715	3.034703	28.800000	7.673429	21.211471
1389.995503	7.663758	0.062261	0.048253	11.419857	0.196194	0.093484	11.727500	0.091097	0.091516	6.451258	3.012257	3.032095	28.800000	7.673929	21.187056
1419.995219	7.668124	0.060606	0.048490	11.402683	0.185599	0.093561	11.755141	0.091137	0.091396	6.443796	3.007526	3.028892	28.800000	7.674429	21.162673
1449.995935	7.671998	0.028160	0.048698	11.382146	0.181523	0.093652	11.764933	0.092777	0.091354	6.436183	3.009734	3.025664	28.800000	7.674930	21.138312
1479.995651	7.673829	0.071445	0.048789	11.358360	0.185520	0.093759	11.760965	0.089505	0.091371	6.430012	3.008551	3.023133	28.800000	7.675430	21.113966
1509.995367	7.673828	0.025109	0.048800	11.379303	0.185875	0.093665	11.735117	0.092642	0.091483	6.423878	3.003348	3.020087	28.800000	7.675930	21.089667
1539.996083	7.674397	0.070192	0.048838	11.391474	0.187112	0.093611	11.725023	0.089371	0.091527	6.417515	2.999799	3.017040	28.800000	7.676429	21.065478
1569.995799	7.677601	0.039393	0.049031	11.412988	0.184889	0.093515	11.698067	0.095772	0.091644	6.410141	2.997118	3.013424	28.800000	7.676929	21.041203
1599.995515	7.676909	0.028743	0.049026	11.478370	0.185701	0.093224	11.692555	0.092146	0.091668	6.404077	2.999642	3.009890	28.800000	7.677430	21.016975
1629.995231	7.679377	0.063278	0.049199	11.542863	0.184803	0.092938	11.690459	0.091421	0.091677	6.400380	3.003348	3.007446	28.800000	7.677930	20.992786
1659.995946	7.679530	0.070657	0.049231	11.587025	0.183439	0.092743	11.697255	0.088930	0.091648	6.397597	3.003348	3.005655	28.800000	7.678430	20.968614
1689.995662	7.681264	0.036815	0.049334	11.599982	0.182966	0.092686	11.726939	0.083892	0.091519	6.394134	3.000824	3.003927	28.800000	7.678929	20.944530
1719.995378	7.682166	0.071012	0.049394	11.614692	0.178015	0.092621	11.766240	0.081654	0.091348	6.392259	2.999642	3.002900	28.800000	7.679429	20.920428
1749.995094	7.684285	0.055112	0.049506	11.599081	0.183604	0.092690	11.781552	0.091515	0.091282	6.389523	2.998459	3.001835	28.800000	7.679930	20.896350
1779.995810	7.687050	0.051651	0.049650	11.575615	0.177330	0.092794	11.807528	0.093179	0.091169	6.386347	2.999642	3.000664	28.800000	7.680430	20.872272
1809.995526	7.685449	0.033354	0.049544	11.546130	0.188319	0.092924	11.837143	0.091200	0.091041	6.383697	2.991520	2.999803	28.800000	7.680929	20.848319
1839.995242	7.685164	0.028814	0.049503	11.499180	0.183928	0.093132	11.865429	0.090293	0.090919	6.379430	2.987736	2.998411	28.800000	7.681429	20.824342
1869.995958	7.685200	0.044154	0.049486	11.465144	0.190037	0.093283	11.856616	0.092753	0.090957	6.374974	2.979141	2.996778	28.800000	7.681929	20.800364
1899.995674	7.685748	0.071035	0.049498	11.426463	0.188326	0.093455	11.857579	0.091996	0.090953	6.370385	2.979141	2.995141	28.800000	7.682429	20.776416
1929.995389	7.684835	0.032046	0.049448	11.428962	0.185544	0.093444	11.835808	0.091626	0.091047	6.365306	2.977880	2.992794	28.800000	7.682929	20.752512
1959.995106	7.684541	0.070767	0.049428	11.422921	0.187396	0.093471	11.809760	0.091011	0.091159	6.358396	2.972754	2.989712	28.800000	7.683430	20.728618
1989.995821	7.684266	0.030390	0.049428	11.452630	0.184763	0.093339	11.761396	0.093281	0.091369	6.352287	2.969049	2.986576	28.800000	7.683929	20.704813
2019.995537	7.681758	0.029074	0.049299	11.475946	0.184858	0.093235	11.753436	0.092304	0.091403	6.345387	2.963845	2.983153	28.800000	7.684429	20.680975
2049.995253	7.680094	0.045936	0.049226	11.516448	0.178867	0.093055	11.732700	0.088638	0.091494	6.338848	2.967708	2.979695	28.800000	7.684929	20.657174
2079.995969	7.678018	0.031904	0.049143	11.583291	0.185260	0.092760	11.727493	0.091846	0.091516	6.333400	2.960454	2.976419	28.800000	7.685429	20.633389
2109.995685	7.675053	0.063838	0.049021	11.664373	0.188650	0.092403	11.743798	0.088591	0.091445	6.327322	2.957616	2.972693	28.800000	7.685930	20.609615
2139.995401	7.672191	0.067929	0.048864	11.678181	0.183273	0.092342	11.768398	0.090624	0.091339	6.320378	2.956275	2.969365	28.800000	7.686430	20.585899
2169.995117	7.669336	0.059037	0.048717	11.706836	0.175335	0.092216	11.776480	0.090885	0.091303	6.315416	2.956275	2.966767	28.800000	7.686930	20.562206
2199.995833	7.669564	0.037138	0.048732	11.710303	0.186592	0.092201	11.810136	0.084223	0.091158	6.310579	2.956275	2.964520	28.800000	7.687429	20.538585
2229.995549	7.669494	0.037950	0.048704	11.664548	0.177077	0.092402	11.840534	0.086746	0.091026	6.304675	2.953673	2.962367	28.800000	7.687930	20.514938
2259.995265	7.668849	0.028703	0.048640	11.610904	0.170408	0.092638	11.855937	0.085406	0.090960	6.298170	2.952569	2.960035	28.800000	7.688430	20.491325
2289.995981	7.668716	0.069679	0.048649	11.643450	0.179261	0.092495	11.859519	0.088630	0.090944	6.294574	2.949967	2.958011	28.800000	7.688930	20.467731
2319.995697	7.668803	0.067590	0.048639	11.615056	0.176557	0.092620	11.873691	0.090814	0.090883	6.289748	2.942398	2.956145	28.800000	7.689429	20.444226
2349.995412	7.669349	0.059565	0.048662	11.597711	0.184007	0.092696	11.870855	0.090782	0.090895	6.284340	2.939875	2.953881	28.800000	7.689929	20.420705
2379.995128	7.669899	0.070728	0.048680	11.574239	0.183139	0.092800	11.873706	0.090963	0.090883	6.278951	2.941215	2.951710	28.800000	7.690430	20.397184
2409.995844	7.670312	0.028420	0.048709	11.587398	0.176581	0.092742	11.859630	0.090561	0.090944	6.276088	2.944842	2.950249	28.800000	7.690929	20.373762
2439.995560	7.668332	0.026717	0.048607	11.603830	0.184795	0.092669	11.844293	0.090483	0.091010	6.273378	2.942398	2.948820	28.800000	7.691429	20.350305
2469.995276	7.666058	0.048167	0.048497	11.640084	0.184156	0.092510	11.832207	0.090703	0.091062	6.271072	2.941057	2.947340	28.800000	7.691929	20.326885
2499.995992	7.665506	0.059431	0.048495	11.692805	0.187286	0.092278	11.825723	0.080810	0.091090	6.269011	2.941136	2.945779	28.800000	7.692429	20.303485
2529.995708	7.666542	0.059061	0.048583	11.752755	0.183171	0.092015	11.816717	0.091515	0.091129	6.267328	2.938613	2.944304	28.800000	7.692930	20.280093
2559.995424	7.665568	0.063247	0.048534	11.760925	0.187767	0.091980	11.822335	0.090522	0.091105	6.264098	2.939796	2.942735	28.800000	7.693430	20.256752
2589.995140	7.665378	0.069719	0.048504	11.727775	0.182998	0.092125	11.865158	0.092382	0.090920	6.261971	2.948785	2.942156	28.800000	7.693929	20.233516
2619.995855	7.663331	0.069734	0.048391	11.731703	0.182398	0.092107	11.890559	0.089891	0.090810	6.262696	2.953673	2.942444	28.800000	7.694429	20.210200
2649.995571	7.663499	0.035168	0.048397	11.724301	0.184204	0.092140	11.930779	0.092824	0.090637	6.265579	2.961243	2.943842	28.800000	7.694930	20.186926
2679.995287	7.662540	0.067669	0.048336	11.712330	0.184133	0.092192	11.962513	0.090144	0.090501	6.270753	2.974489	2.946343	28.800000	7.695430	20.163695
2709.996003	7.664328	0.025842	0.048413	11.666631	0.184684	0.092393	12.003079	0.089040	0.090327	6.275464	2.970152	2.949039	28.800000	7.695930	20.140487
2739.995719	7.662290	0.029058	0.048306	11.681423	0.182737	0.092328	12.002495	0.088244	0.090330	6.282969	2.979062	2.952278	28.800000	7.696429	20.117363
2769.995435	7.662937	0.039748	0.048333	11.663640	0.185370	0.092406	11.990600	0.090483	0.090380	6.290546	2.983162	2.955943	28.800000	7.696929	20.094208
2799.995151	7.664563	0.027340	0.048415	11.643091	0.180601	0.092496	11.973391	0.092737	0.090454	6.299940	2.987814	2.960469	28.800000	7.697429	20.071092
2829.995867	7.665206	0.065651	0.048432	11.607160	0.183368	0.092655	11.969995	0.084279	0.090469	6.311233	3.007211	2.966042	28.800000	7.697930	20.047972
2859.995583	7.666106	0.070515	0.048515	11.668163	0.183825	0.092386	11.927281	0.089781	0.090652	6.330295	3.030866	2.974046	28.800000	7.698430	20.024892
2889.995298	7.666741	0.026670	0.048554	11.676402	0.176581	0.092350	11.911794	0.090065	0.090719	6.351708	3.049079	2.983716	28.800000	7.698930	20.001843
2919.996015	7.669331	0.056278	0.048705	11.685089	0.180743	0.092312	11.920614	0.091618	0.090681	6.376235	3.074232	2.994765	28.800000	7.699430	19.978814
2949.995730	7.667986	0.060724	0.048652	11.728953	0.182832	0.092119	11.919502	0.100841	0.090686	6.407290	3.112946	3.008459	28.800000	7.699929	19.955868
2979.995446	7.668618	0.058154	0.048714	11.778322	0.183336	0.091904	11.928092	0.090522	0.090649	6.443295	3.136680	3.024299	28.800000	7.700429	19.932905
3009.995162	7.666401	0.057815	0.048589	11.780283	0.182493	0.091895	11.960940	0.089978	0.090508	6.483382	3.165459	3.042502	28.800000	7.700930	19.909962
3039.995878	7.663466	0.070846	0.048430	11.791762	0.181295	0.091845	11.989255	0.086257	0.090386	6.526968	3.179337	3.062309	28.800000	7.701430	19.887024
3069.995594	7.661259	0.054489	0.048318	11.816714	0.182052	0.091736	12.013487	0.088149	0.090282	6.573163	3.192583	3.083014	28.800000	7.701929	19.864204
3099.995310	7.659668	0.058375	0.048225	11.812314	0.182793	0.091755	12.058302	0.090514	0.090091	6.620209	3.209062	3.104592	28.800000	7.702429	19.841329
3129.996026	7.658756	0.068765	0.048170	11.805845	0.178449	0.091783	12.070542	0.090175	0.090039	6.669094	3.232165	3.126887	28.800000	7.702929	19.818488
3159.995742	7.656539	0.052494	0.048046	11.806385	0.186773	0.091781	12.088516	0.090814	0.089962	6.718409	3.251640	3.149442	28.800000	7.703430	19.795648
3189.995458	7.654015	0.029169	0.047902	11.804687	0.185891	0.091788	12.104828	0.092059	0.089892	6.767482	3.277976	3.171767	28.800000	7.703929	19.772943
3219.995173	7.651869	0.069868	0.047791	11.824716	0.182335	0.091701	12.120556	0.088070	0.089825	6.817984	3.303444	3.194560	28.800000	7.704429	19.750188
3249.995889	7.653478	0.033906	0.047875	11.811861	0.176431	0.091757	12.127676	0.091909	0.089795	6.865126	3.317242	3.216209	28.800000	7.704929	19.727437
3279.995605	7.655569	0.069435	0.047972	11.769926	0.183076	0.091940	12.163750	0.090033	0.089642	6.907742	3.332144	3.236202	28.800000	7.705429	19.704734
3309.995321	7.656533	0.027001	0.048009	11.735459	0.172048	0.092091	12.171034	0.084972	0.089611	6.947532	3.344839	3.254747	28.800000	7.705929	19.682066
3339.996037	7.657507	0.063113	0.048063	11.734289	0.180838	0.092096	12.175629	0.097893	0.089591	6.987069	3.360214	3.272791	28.800000	7.706430	19.659409
3369.995753	7.657567	0.031715	0.048057	11.715422	0.180081	0.092179	12.167167	0.089947	0.089627	7.026843	3.382292	3.291154	28.800000	7.706930	19.636763
3399.995469	7.655816	0.024510	0.047970	11.739928	0.184235	0.092071	12.142492	0.085564	0.089732	7.069010	3.392227	3.310092	28.800000	7.707430	19.614163
3429.995185	7.656939	0.050784	0.048072	11.812585	0.180506	0.091754	12.115264	0.089111	0.089848	7.109241	3.403581	3.327577	28.800000	7.707929	19.591656
3459.995901	7.655906	0.054985	0.048035	11.853946	0.173506	0.091574	12.119806	0.089182	0.089829	7.147391	3.417300	3.344483	28.800000	7.708430	19.569077
3489.995616	7.655528	0.070003	0.048024	11.875110	0.181508	0.091482	12.124282	0.089213	0.089810	7.183852	3.438589	3.360858	28.800000	7.708930	19.546543
3519.995332	7.654522	0.034726	0.047987	11.913493	0.181650	0.091315	12.143625	0.086312	0.089727	7.219342	3.454990	3.376586	28.800000	7.709430	19.524044
3549.996048	7.652946	0.060235	0.047907	11.929953	0.177030	0.091244	12.172192	0.090680	0.089606	7.254081	3.478486	3.392237	28.800000	7.709929	19.501638
3579.995764	7.650322	0.066597	0.047756	11.925196	0.180365	0.091265	12.207909	0.089174	0.089454	7.287268	3.484952	3.407424	28.800000	7.710430	19.479170
3609.995480	7.649360	0.064563	0.047709	11.939113	0.180317	0.091204	12.226782	0.082647	0.089375	7.320534	3.493625	3.422428	28.800000	7.710930	19.456750
3639.995196	7.649140	0.069963	0.047704	11.954027	0.174768	0.091140	12.249928	0.090490	0.089277	7.352756	3.506162	3.436945	28.800000	7.711430	19.434352
3669.995912	7.647693	0.058044	0.047601	11.914044	0.181791	0.091313	12.275139	0.088646	0.089170	7.382687	3.507266	3.451058	28.800000	7.711929	19.412033
3699.995628	7.649304	0.067409	0.047668	11.866477	0.180633	0.091519	12.314841	0.088457	0.089003	7.408927	3.519014	3.463585	28.800000	7.712429	19.389686
3729.995344	7.649229	0.031888	0.047657	11.852953	0.181925	0.091578	12.320654	0.089371	0.088978	7.435624	3.521301	3.475916	28.800000	7.712929	19.367375
3759.996060	7.647003	0.031092	0.047508	11.808380	0.181303	0.091772	12.346196	0.090112	0.088871	7.460068	3.527451	3.487586	28.800000	7.713429	19.345082
3789.995776	7.646279	0.039290	0.047441	11.758841	0.180609	0.091989	12.339387	0.089442	0.088899	7.481554	3.533680	3.497963	28.800000	7.713930	19.322799
3819.995492	7.647021	0.056191	0.047486	11.762237	0.181074	0.091974	12.334078	0.086210	0.088922	7.500388	3.537386	3.506507	28.800000	7.714430	19.300560
3849.995207	7.648566	0.039353	0.047589	11.793870	0.179261	0.091836	12.291515	0.089718	0.089101	7.516712	3.544877	3.513572	28.800000	7.714930	19.278345
3879.995924	7.647829	0.025188	0.047557	11.812613	0.180309	0.091754	12.260042	0.090088	0.089234	7.531946	3.547321	3.520297	28.800000	7.715429	19.256205
3909.995639	7.645775	0.037540	0.047484	11.897459	0.181586	0.091385	12.211037	0.092304	0.089441	7.547824	3.558675	3.526537	28.800000	7.715930	19.234033
3939.995355	7.642735	0.065895	0.047344	11.958070	0.183155	0.091122	12.196269	0.089639	0.089504	7.563586	3.573577	3.533011	28.800000	7.716430	19.211891
3969.996071	7.642806	0.067937	0.047360	11.981300	0.182887	0.091022	12.190419	0.089655	0.089529	7.578761	3.574918	3.539657	28.800000	7.716930	19.189769
3999.995787	7.643877	0.039913	0.047437	12.013536	0.176289	0.090883	12.196169	0.096781	0.089504	7.594182	3.582408	3.546315	28.800000	7.717429	19.167736
4029.995503	7.646066	0.066368	0.047572	12.035307	0.170905	0.090789	12.221601	0.086100	0.089396	7.610451	3.591239	3.553492	28.800000	7.717929	19.145675
4059.995219	7.647743	0.045691	0.047656	12.015072	0.179868	0.090876	12.246977	0.084917	0.089289	7.625382	3.602515	3.560530	28.800000	7.718429	19.123638
4089.995934	7.645330	0.023209	0.047506	11.988069	0.181784	0.090993	12.286465	0.090538	0.089122	7.641741	3.616155	3.568302	28.800000	7.718930	19.101600
4119.995651	7.646355	0.046196	0.047557	11.974535	0.182264	0.091051	12.290160	0.088543	0.089107	7.660063	3.620019	3.576816	28.800000	7.719429	19.079679
4149.995367	7.646424	0.063231	0.047521	11.898125	0.170495	0.091382	12.333941	0.098452	0.088922	7.677212	3.626248	3.585537	28.800000	7.719929	19.057726
4179.996082	7.646771	0.069600	0.047527	11.871530	0.182911	0.091497	12.330930	0.089915	0.088935	7.694276	3.624908	3.593631	28.800000	7.720429	19.035784
4209.995798	7.645576	0.042120	0.047429	11.811334	0.180601	0.091759	12.339161	0.086549	0.088900	7.709840	3.632398	3.601437	28.800000	7.720930	19.013869
4239.995514	7.643061	0.052439	0.047288	11.815243	0.182296	0.091742	12.292012	0.083404	0.089099	7.726007	3.636183	3.608760	28.800000	7.721430	18.991979
4269.995230	7.641488	0.027143	0.047199	11.813740	0.184007	0.091749	12.268859	0.096655	0.089197	7.738488	3.633660	3.614468	28.800000	7.721930	18.970115
4299.995946	7.638884	0.026346	0.047088	11.884257	0.181429	0.091442	12.205507	0.085051	0.089465	7.752628	3.636104	3.620064	28.800000	7.722429	18.948324
4329.995662	7.637391	0.023690	0.047013	11.902121	0.178488	0.091365	12.184455	0.087779	0.089554	7.764750	3.660468	3.625404	28.800000	7.722930	18.926504
4359.995378	7.636555	0.024943	0.047006	11.982416	0.177377	0.091017	12.148291	0.092729	0.089707	7.782587	3.671113	3.632568	28.800000	7.723430	18.904714
4389.995094	7.636028	0.023627	0.046990	12.011983	0.180097	0.090889	12.170370	0.097940	0.089614	7.797382	3.677026	3.638973	28.800000	7.723929	18.883008
4419.995810	7.634563	0.024762	0.046935	12.062771	0.179308	0.090671	12.179838	0.089702	0.089573	7.812927	3.683413	3.645513	28.800000	7.724430	18.861245
4449.995525	7.635847	0.052652	0.047007	12.058406	0.181058	0.090689	12.214183	0.086139	0.089428	7.827178	3.695792	3.652040	28.800000	7.724930	18.839523
4479.995241	7.635154	0.054307	0.046968	12.061552	0.176825	0.090676	12.252667	0.091681	0.089265	7.842794	3.703283	3.659126	28.800000	7.725429	18.817906
4509.995957	7.635473	0.049231	0.046978	12.046101	0.178693	0.090742	12.294906	0.088417	0.089087	7.859608	3.714479	3.666994	28.800000	7.725929	18.796222
4539.995673	7.632643	0.055135	0.046813	12.037033	0.180215	0.090781	12.333124	0.090199	0.088926	7.877084	3.723231	3.675066	28.800000	7.726430	18.774579
4569.995389	7.631866	0.069254	0.046777	12.051131	0.178252	0.090721	12.354272	0.098547	0.088837	7.897050	3.731904	3.684016	28.800000	7.726930	18.752970
4599.995105	7.631958	0.030587	0.046790	12.066192	0.183384	0.090656	12.371704	0.078532	0.088764	7.918590	3.731983	3.693668	28.800000	7.727429	18.731445
4629.995821	7.629675	0.051060	0.046663	12.072178	0.178788	0.090630	12.388328	0.090672	0.088694	7.939774	3.737108	3.703257	28.800000	7.727929	18.709873
4659.995537	7.626959	0.063286	0.046503	12.058843	0.174673	0.090687	12.417378	0.087156	0.088572	7.955333	3.743180	3.710498	28.800000	7.728429	18.688336
4689.995253	7.624089	0.046464	0.046348	12.072732	0.166459	0.090628	12.418822	0.088370	0.088566	7.970845	3.748147	3.717417	28.800000	7.728930	18.666826
4719.995968	7.622587	0.022129	0.046261	12.070194	0.177542	0.090639	12.451524	0.091019	0.088429	7.985647	3.750591	3.724193	28.800000	7.729430	18.645314
4749.995685	7.621290	0.044012	0.046208	12.108935	0.175595	0.090472	12.456592	0.089198	0.088408	8.000401	3.755559	3.730484	28.800000	7.729929	18.623916
4779.995400	7.620672	0.022917	0.046194	12.150039	0.177692	0.090296	12.455439	0.087117	0.088413	8.014675	3.758082	3.736531	28.800000	7.730000	18.620871
4809.995116	7.619070	0.041639	0.046136	12.213942	0.179639	0.090023	12.440536	0.085351	0.088475	8.028463	3.768017	3.742102	28.800000	7.730000	18.620871
4839.995832	7.618104	0.060117	0.046091	12.233062	0.176171	0.089941	12.457326	0.089655	0.088405	8.041138	3.775429	3.747667	28.800000	7.730000	18.620871
4869.995548	7.618578	0.060425	0.046115	12.227636	0.178575	0.089964	12.479548	0.088811	0.088312	8.053030	3.781894	3.753150	28.800000	7.730000	18.620871
4899.995264	7.619236	0.023879	0.046148	12.220209	0.181421	0.089996	12.518272	0.088181	0.088150	8.064139	3.786862	3.758301	28.800000	7.730000	18.620871
4929.995980	7.620001	0.025085	0.046180	12.197520	0.177795	0.090093	12.540742	0.086998	0.088057	8.074108	3.785442	3.763098	28.800000	7.730000	18.620871
4959.995696	7.619792	0.053164	0.046147	12.155474	0.182469	0.090273	12.583564	0.083806	0.087879	8.084381	3.789464	3.768254	28.800000	7.730000	18.620871
4989.995412	7.618438	0.063357	0.046060	12.136443	0.179088	0.090354	12.580624	0.085508	0.087891	8.094882	3.793091	3.773255	28.800000	7.730000	18.620871
5019.995128	7.619672	0.048703	0.046112	12.101570	0.182256	0.090504	12.582354	0.081322	0.087884	8.102267	3.791908	3.777013	28.800000	7.730000	18.620871
5049.995843	7.622160	0.023398	0.046202	12.002052	0.177456	0.090932	12.572111	0.092777	0.087926	8.106994	3.785442	3.780280	28.800000	7.730000	18.620871
5079.995559	7.624093	0.034592	0.046295	11.969511	0.180404	0.091073	12.542474	0.078248	0.088050	8.112368	3.785364	3.783112	28.800000	7.730000	18.620871
5109.995275	7.626491	0.068970	0.046415	11.938745	0.172970	0.091206	12.502279	0.085682	0.088217	8.116776	3.782998	3.785481	28.800000	7.730000	18.620871
5139.995991	7.628491	0.029760	0.046520	11.923773	0.178575	0.091271	12.468462	0.081614	0.088358	8.120213	3.799320	3.787228	28.800000	7.730000	18.620871
5169.995707	7.630861	0.065422	0.046656	11.926216	0.182824	0.091260	12.420119	0.083254	0.088560	8.122947	3.784338	3.788439	28.800000	7.730000	18.620871
5199.995423	7.633314	0.023359	0.046815	11.965842	0.175217	0.091089	12.388309	0.088591	0.088694	8.125562	3.806731	3.789170	28.800000	7.730000	18.620871
5229.995139	7.634878	0.052463	0.046921	11.999845	0.184424	0.090942	12.356714	0.088575	0.088827	8.131484	3.807914	3.791470	28.800000	7.730000	18.620871
5259.995855	7.634270	0.057311	0.046934	12.088659	0.178528	0.090559	12.309450	0.089363	0.089025	8.137672	3.811856	3.793296	28.800000	7.730000	18.620871
5289.995571	7.632458	0.023619	0.046857	12.143150	0.177022	0.090326	12.294844	0.089694	0.089087	8.144370	3.819189	3.795741	28.800000	7.730000	18.620871
5319.995286	7.630403	0.026882	0.046761	12.181430	0.177298	0.090162	12.300592	0.089174	0.089063	8.152628	3.823999	3.799080	28.800000	7.730000	18.620871
5349.996003	7.628360	0.034387	0.046675	12.238981	0.180191	0.089916	12.305775	0.087487	0.089041	8.163775	3.835905	3.803523	28.800000	7.730000	18.620871
5379.995718	7.626472	0.060535	0.046584	12.270446	0.176620	0.089782	12.334207	0.088055	0.088921	8.173924	3.837088	3.807799	28.800000	7.730000	18.620871
5409.995434	7.626665	0.036263	0.046575	12.232240	0.180609	0.089945	12.389259	0.083435	0.088690	8.185570	3.845761	3.813542	28.800000	7.730000	18.620871
5439.995150	7.626186	0.062033	0.046520	12.176989	0.180136	0.090181	12.438044	0.082127	0.088485	8.198010	3.859402	3.819834	28.800000	7.730000	18.620871
5469.995866	7.626070	0.062805	0.046502	12.154430	0.180601	0.090277	12.458834	0.083624	0.088398	8.212409	3.865552	3.826659	28.800000	7.730000	18.620871
5499.995582	7.626619	0.041561	0.046520	12.128600	0.179584	0.090388	12.471640	0.088425	0.088345	8.226631	3.858219	3.833425	28.800000	7.730000	18.620871
5529.995298	7.627410	0.032716	0.046537	12.077084	0.180317	0.090609	12.480361	0.088811	0.088309	8.236665	3.860742	3.838578	28.800000	7.730000	18.620871
5559.996014	7.628268	0.057153	0.046574	12.053388	0.179750	0.090711	12.456127	0.088449	0.088410	8.248089	3.857194	3.844051	28.800000	7.730000	18.620871
5589.995730	7.628684	0.023501	0.046603	12.064326	0.182028	0.090664	12.425376	0.088890	0.088538	8.257722	3.859481	3.848319	28.800000	7.730000	18.620871
5619.995446	7.630529	0.042814	0.046700	12.049331	0.184614	0.090728	12.393837	0.090758	0.088671	8.264627	3.848284	3.851631	28.800000	7.730000	18.620871
5649.995162	7.631041	0.051801	0.046718	12.028734	0.179750	0.090817	12.379518	0.089142	0.088731	8.269817	3.866814	3.854230	28.800000	7.730000	18.620871
5679.995877	7.631143	0.063609	0.046717	12.015658	0.180625	0.090873	12.345561	0.089426	0.088873	8.277327	3.865552	3.857801	28.800000	7.730000	18.620871
5709.995594	7.629994	0.055695	0.046671	12.051833	0.179781	0.090718	12.314997	0.089584	0.089002	8.283471	3.870677	3.860196	28.800000	7.730000	18.620871
5739.995309	7.629918	0.069309	0.046666	12.050988	0.178591	0.090721	12.295824	0.090956	0.089083	8.287803	3.876906	3.862178	28.800000	7.730000	18.620871
5769.996025	7.630134	0.068694	0.046694	12.082013	0.176991	0.090588	12.287250	0.089079	0.089119	8.292815	3.886605	3.864117	28.800000	7.730000	18.620871
5799.995741	7.629818	0.056680	0.046696	12.118338	0.181035	0.090432	12.263262	0.090443	0.089220	8.300446	3.891809	3.867194	28.800000	7.730000	18.620871
5829.995457	7.634111	0.046811	0.046963	12.166569	0.179316	0.090225	12.269066	0.088583	0.089196	8.310089	3.900561	3.871052	28.800000	7.730000	18.620871
5859.995173	7.636648	0.051604	0.047102	12.157805	0.178307	0.090263	12.303396	0.092847	0.089051	8.318432	3.909155	3.874959	28.800000	7.730000	18.620871
5889.995889	7.635853	0.044414	0.047084	12.210684	0.178591	0.090037	12.310718	0.081661	0.089020	8.329783	3.901743	3.879539	28.800000	7.730000	18.620871
5919.995605	7.634965	0.070192	0.047041	12.223991	0.178425	0.089980	12.332395	0.088236	0.088929	8.341375	3.916567	3.884685	28.800000	7.730000	18.620871
5949.995320	7.637572	0.032401	0.047191	12.229391	0.178827	0.089957	12.360345	0.087597	0.088811	8.353423	3.910417	3.890110	28.800000	7.730000	18.620871
5979.996037	7.638982	0.027805	0.047262	12.210991	0.181445	0.090035	12.392866	0.088181	0.088675	8.363764	3.917907	3.895035	28.800000	7.730000	18.620871
6009.995752	7.638712	0.056160	0.047242	12.200586	0.180018	0.090080	12.397970	0.090073	0.088653	8.375388	3.927763	3.900454	28.800000	7.730000	18.620871
6039.995468	7.641146	0.045999	0.047344	12.130934	0.179229	0.090378	12.443075	0.088528	0.088464	8.384943	3.916646	3.905586	28.800000	7.730000	18.620871
6069.995184	7.638537	0.044517	0.047192	12.122378	0.187010	0.090415	12.447625	0.088882	0.088445	8.392473	3.906632	3.909102	28.800000	7.730000	18.620871
6099.995900	7.637397	0.062931	0.047108	12.086628	0.180120	0.090568	12.441180	0.088149	0.088472	8.396850	3.916567	3.911499	28.800000	7.730000	18.620871
6129.995616	7.637858	0.031565	0.047116	12.051093	0.180940	0.090721	12.443086	0.088953	0.088464	8.398838	3.900561	3.912804	28.800000	7.730000	18.620871
6159.995332	7.638975	0.042916	0.047181	12.053274	0.187924	0.090711	12.416719	0.091791	0.088575	8.399007	3.900561	3.912857	28.800000	7.730000	18.620871
6189.996048	7.641206	0.052494	0.047305	12.049874	0.180861	0.090726	12.370499	0.090081	0.088769	8.396786	3.895436	3.911879	28.800000	7.730000	18.620871
6219.995764	7.642607	0.024518	0.047362	12.006883	0.179616	0.090911	12.347982	0.091176	0.088863	8.394013	3.895436	3.911096	28.800000	7.730000	18.620871
6249.995480	7.642243	0.067165	0.047335	11.994353	0.180191	0.090965	12.327761	0.090317	0.088948	8.389991	3.893149	3.909404	28.800000	7.730000	18.620871
6279.995195	7.642708	0.041537	0.047381	12.031736	0.180711	0.090804	12.279307	0.089198	0.089153	8.385998	3.886683	3.907155	28.800000	7.730000	18.620871
6309.995911	7.642838	0.024675	0.047392	12.039244	0.184945	0.090772	12.262908	0.095614	0.089222	8.379583	3.895672	3.904148	28.800000	7.730000	18.620871
6339.995627	7.643001	0.035033	0.047430	12.097945	0.179521	0.090519	12.249563	0.089253	0.089278	8.375445	3.895436	3.901604	28.800000	7.730000	18.620871
6369.996343	7.642682	0.044170	0.047430	12.131004	0.179009	0.090378	12.250552	0.090766	0.089274	8.372643	3.904030	3.899962	28.800000	7.730000	18.620871
6399.996059	7.642622	0.052944	0.047456	12.185528	0.180341	0.090144	12.237925	0.089647	0.089327	8.373660	3.919169	3.899816	28.800000	7.730000	18.620871
6429.995775	7.642024	0.067322	0.047436	12.216159	0.179166	0.090013	12.245765	0.087471	0.089294	8.374220	3.920430	3.899727	28.800000	7.730000	18.620871
6459.995491	7.641000	0.064910	0.047388	12.233274	0.180648	0.089940	12.261663	0.086927	0.089227	8.377924	3.915226	3.901229	28.800000	7.730000	18.620871
6489.995207	7.639965	0.069262	0.047337	12.245452	0.171748	0.089889	12.284124	0.087834	0.089132	8.383782	3.921692	3.903768	28.800000	7.730000	18.620871
6519.995923	7.638542	0.065533	0.047263	12.262213	0.172852	0.089817	12.296132	0.088181	0.089082	8.390694	3.925319	3.906733	28.800000	7.730000	18.620871
6549.995638	7.638225	0.043082	0.047245	12.262998	0.178678	0.089814	12.334306	0.088110	0.088921	8.397001	3.926659	3.909602	28.800000	7.730000	18.620871
6579.995355	7.638034	0.023091	0.047229	12.251150	0.179734	0.089864	12.358818	0.088796	0.088818	8.403466	3.931548	3.912688	28.800000	7.730000	18.620871
6609.996070	7.636327	0.067165	0.047108	12.205781	0.178410	0.090058	12.401313	0.088338	0.088639	8.409675	3.915305	3.916018	28.800000	7.730000	18.620871
6639.995786	7.638051	0.032613	0.047175	12.145596	0.180491	0.090315	12.420599	0.089150	0.088558	8.413791	3.924136	3.918573	28.800000	7.730000	18.620871
6669.995502	7.638081	0.029129	0.047150	12.093138	0.180767	0.090540	12.426072	0.093360	0.088536	8.416993	3.922875	3.920618	28.800000	7.730000	18.620871
6699.995218	7.637693	0.069096	0.047104	12.045636	0.179080	0.090744	12.425123	0.089008	0.088540	8.418273	3.917907	3.921728	28.800000	7.730000	18.620871
6729.995934	7.638059	0.064555	0.047102	12.000301	0.179561	0.090940	12.416655	0.082261	0.088575	8.419248	3.925319	3.922681	28.800000	7.730000	18.620871
6759.995650	7.638258	0.041639	0.047114	12.003391	0.175958	0.090926	12.374954	0.089190	0.088750	8.418974	3.910496	3.922520	28.800000	7.730000	18.620871
6789.995366	7.638197	0.029129	0.047114	12.009720	0.182367	0.090899	12.329573	0.077531	0.088941	8.417260	3.912782	3.921669	28.800000	7.730000	18.620871
6819.996082	7.639657	0.024762	0.047201	12.018884	0.181515	0.090860	12.304887	0.089749	0.089045	8.414664	3.915305	3.920382	28.800000	7.730000	18.620871
6849.995798	7.639061	0.043697	0.047179	12.041798	0.175950	0.090761	12.260318	0.090254	0.089233	8.412146	3.909076	3.918971	28.800000	7.730000	18.620871
6879.995513	7.638135	0.023635	0.047144	12.075001	0.174823	0.090618	12.217857	0.094022	0.089412	8.411088	3.925319	3.918122	28.800000	7.730000	18.620871
6909.995229	7.637525	0.059636	0.047121	12.095921	0.178607	0.090528	12.200322	0.084397	0.089487	8.411405	3.925319	3.918032	28.800000	7.730000	18.620871
6939.995945	7.637502	0.048056	0.047138	12.132259	0.183344	0.090372	12.195051	0.089805	0.089509	8.413797	3.931548	3.918716	28.800000	7.730000	18.620871
6969.995661	7.636967	0.026078	0.047141	12.199169	0.178362	0.090086	12.177265	0.090191	0.089584	8.417967	3.933992	3.919872	28.800000	7.730000	18.620871
6999.995377	7.638041	0.034080	0.047220	12.232482	0.179726	0.089944	12.191205	0.088496	0.089525	8.421956	3.940142	3.921313	28.800000	7.730000	18.620871
7029.995093	7.638539	0.046921	0.047257	12.249296	0.173790	0.089872	12.225904	0.081417	0.089378	8.428149	3.956464	3.923948	28.800000	7.730000	18.620871
7059.995809	7.638607	0.032203	0.047280	12.286662	0.180877	0.089713	12.242725	0.089434	0.089307	8.436406	3.947712	3.927307	28.800000	7.730000	18.620871
7089.995525	7.638242	0.069703	0.047274	12.316509	0.179080	0.089586	12.281552	0.088953	0.089143	8.444345	3.941562	3.930590	28.800000	7.730000	18.620871
7119.995241	7.638868	0.059731	0.047284	12.266167	0.179403	0.089800	12.327245	0.088141	0.088950	8.451100	3.950314	3.934225	28.800000	7.730000	18.620871
7149.995956	7.637718	0.044328	0.047204	12.237287	0.179899	0.089923	12.351009	0.089537	0.088851	8.458675	3.954020	3.938018	28.800000	7.730000	18.620871
7179.995673	7.637678	0.051044	0.047180	12.195468	0.188413	0.090102	12.378046	0.092485	0.088737	8.464151	3.939039	3.940974	28.800000	7.730000	18.620871
7209.995389	7.639836	0.056491	0.047268	12.128648	0.174358	0.090388	12.400601	0.094393	0.088642	8.465749	3.943218	3.942452	28.800000	7.730000	18.620871
7239.995104	7.640937	0.023989	0.047301	12.073036	0.176470	0.090626	12.406585	0.088898	0.088617	8.466268	3.936673	3.943307	28.800000	7.730000	18.620871
7269.995820	7.641232	0.052029	0.047317	12.068745	0.180286	0.090645	12.397112	0.089931	0.088657	8.466959	3.937777	3.943670	28.800000	7.730000	18.620871
7299.995536	7.642236	0.026181	0.047370	12.062851	0.180412	0.090670	12.368722	0.088354	0.088776	8.466442	3.937777	3.943500	28.800000	7.730000	18.620871
7329.995252	7.641947	0.030745	0.047348	12.052796	0.180625	0.090713	12.331917	0.089150	0.088931	8.462137	3.922796	3.941639	28.800000	7.730000	18.620871
7359.995968	7.642116	0.044714	0.047350	12.036966	0.180861	0.090782	12.310813	0.087069	0.089020	8.455879	3.922875	3.938974	28.800000	7.730000	18.620871
7389.995684	7.640650	0.028562	0.047279	12.062271	0.179009	0.090673	12.255658	0.090561	0.089252	8.451151	3.920430	3.936526	28.800000	7.730000	18.620871
7419.995400	7.641091	0.064469	0.047301	12.055931	0.183683	0.090700	12.225248	0.084736	0.089381	8.445554	3.927763	3.934045	28.800000	7.730000	18.620871
7449.995116	7.641322	0.069435	0.047322	12.071183	0.179442	0.090634	12.214445	0.088914	0.089427	8.440932	3.922954	3.931766	28.800000	7.730000	18.620871
7479.995831	7.641008	0.035885	0.047331	12.122658	0.180530	0.090413	12.209175	0.090278	0.089449	8.439124	3.942744	3.930372	28.800000	7.730000	18.620871
7509.995547	7.641870	0.029176	0.047411	12.183752	0.176549	0.090152	12.188753	0.086770	0.089536	8.440530	3.934071	3.930327	28.800000	7.730000	18.620871
7539.995263	7.640334	0.057847	0.047335	12.204167	0.178441	0.090065	12.216671	0.082773	0.089417	8.440103	3.939039	3.929907	28.800000	7.730000	18.620871
7569.995979	7.640345	0.039543	0.047365	12.261268	0.177235	0.089821	12.231661	0.089639	0.089354	8.442835	3.937777	3.930512	28.800000	7.730000	18.620871
7599.995695	7.639437	0.068245	0.047327	12.287048	0.180033	0.089712	12.256392	0.089363	0.089249	8.444171	3.940221	3.930831	28.800000	7.730000	18.620871
7629.995411	7.640516	0.059368	0.047394	12.300585	0.179450	0.089654	12.287341	0.089410	0.089119	8.446499	3.944006	3.931741	28.800000	7.730000	18.620871
7659.995127	7.640570	0.030911	0.047381	12.268012	0.179750	0.089792	12.336858	0.089923	0.088910	8.449706	3.939117	3.933569	28.800000	7.730000	18.620871
7689.995843	7.640965	0.027631	0.047399	12.259169	0.178583	0.089830	12.363405	0.089158	0.088798	8.453053	3.936515	3.935199	28.800000	7.730000	18.620871
7719.995559	7.641349	0.069041	0.047387	12.192223	0.183510	0.090116	12.401599	0.088244	0.088638	8.455029	3.940616	3.936849	28.800000	7.730000	18.620871
7749.995275	7.640496	0.029508	0.047324	12.167098	0.180964	0.090223	12.407323	0.088007	0.088614	8.456837	3.940537	3.937952	28.800000	7.730000	18.620871
7779.995991	7.639532	0.066723	0.047257	12.141318	0.182556	0.090333	12.415898	0.087550	0.088578	8.457732	3.926817	3.938649	28.800000	7.730000	18.620871
7809.995707	7.639042	0.059487	0.047222	12.127289	0.179844	0.090393	12.396725	0.091862	0.088659	8.455618	3.929340	3.937841	28.800000	7.730000	18.620871
7839.995422	7.637660	0.068418	0.047133	12.104742	0.180893	0.090490	12.376317	0.080038	0.088744	8.453503	3.932810	3.937130	28.800000	7.730000	18.620871
7869.995138	7.638481	0.048971	0.047167	12.082183	0.183360	0.090587	12.357625	0.097569	0.088823	8.450543	3.926659	3.936034	28.800000	7.730000	18.620871
7899.995854	7.639134	0.063397	0.047185	12.044627	0.181153	0.090749	12.331472	0.096001	0.088933	8.447373	3.923032	3.935003	28.800000	7.730000	18.620871
7929.995570	7.639451	0.029776	0.047176	11.993293	0.180270	0.090970	12.296055	0.088717	0.089082	8.443463	3.927921	3.933802	28.800000	7.730000	18.620871
7959.995286	7.639307	0.050539	0.047158	11.974115	0.182998	0.091053	12.268220	0.089261	0.089199	8.440820	3.924136	3.932821	28.800000	7.730000	18.620871
7989.996002	7.638894	0.027978	0.047134	11.972037	0.178662	0.091062	12.233724	0.087960	0.089345	8.438374	3.918065	3.931736	28.800000	7.730000	18.620871
8019.995718	7.638622	0.067385	0.047121	11.976728	0.181594	0.091042	12.207791	0.089111	0.089455	8.435488	3.923190	3.930364	28.800000	7.730000	18.620871
8049.995434	7.636402	0.055427	0.047017	12.019958	0.181523	0.090855	12.180184	0.090081	0.089572	8.432990	3.926659	3.928727	28.800000	7.730000	18.620871
8079.995150	7.636406	0.068166	0.047047	12.077618	0.180404	0.090607	12.155284	0.090782	0.089678	8.432319	3.934308	3.927776	28.800000	7.730000	18.620871
8109.995865	7.636815	0.037958	0.047086	12.106394	0.178638	0.090483	12.148866	0.089915	0.089705	8.434809	3.934150	3.928590	28.800000	7.730000	18.620871
8139.995581	7.636254	0.029531	0.047076	12.149664	0.180333	0.090298	12.147153	0.078429	0.089712	8.439942	3.949131	3.930449	28.800000	7.730000	18.620871
8169.995297	7.636884	0.042869	0.047133	12.191439	0.180396	0.090119	12.149421	0.090175	0.089703	8.445441	3.949052	3.932490	28.800000	7.730000	18.620871
8199.996013	7.637870	0.054284	0.047189	12.191522	0.185489	0.090119	12.169780	0.089119	0.089616	8.451395	3.960249	3.935208	28.800000	7.730000	18.620871
8229.995729	7.637539	0.058478	0.047163	12.177686	0.175517	0.090178	12.199800	0.088299	0.089489	8.458656	3.960170	3.938674	28.800000	7.730000	18.620871
8259.995445	7.635391	0.062254	0.047059	12.211234	0.177795	0.090034	12.227146	0.086730	0.089373	8.465552	3.961905	3.941431	28.800000	7.730000	18.620871
8289.995161	7.634650	0.026473	0.047022	12.220777	0.180112	0.089994	12.248019	0.086935	0.089285	8.473379	3.961905	3.944905	28.800000	7.730000	18.620871
8319.995877	7.634793	0.030327	0.047022	12.206250	0.175595	0.090056	12.265388	0.084247	0.089211	8.481416	3.960801	3.948733	28.800000	7.730000	18.620871
8349.995593	7.633937	0.064957	0.046959	12.176428	0.179300	0.090183	12.277423	0.089024	0.089160	8.489830	3.970814	3.952906	28.800000	7.730000	18.620871
8379.995308	7.633079	0.028940	0.046898	12.153490	0.180806	0.090281	12.279237	0.089355	0.089153	8.497195	3.973259	3.956521	28.800000	7.730000	18.620871
8409.996025	7.634031	0.034363	0.046926	12.103851	0.179379	0.090494	12.272853	0.089694	0.089180	8.501886	3.961826	3.959211	28.800000	7.730000	18.620871
8439.995740	7.634860	0.062419	0.046948	12.054462	0.181326	0.090706	12.258945	0.088559	0.089239	8.503687	3.954256	3.960581	28.800000	7.730000	18.620871
8469.995456	7.636136	0.052896	0.047007	12.029807	0.180396	0.090812	12.235888	0.089655	0.089336	8.504155	3.952758	3.961068	28.800000	7.730000	18.620871
8499.995172	7.635032	0.024715	0.046937	12.014976	0.180506	0.090876	12.212359	0.089686	0.089436	8.502251	3.944085	3.960367	28.800000	7.730000	18.620871
8529.995888	7.634460	0.036910	0.046906	12.016592	0.180191	0.090869	12.186498	0.090222	0.089545	8.498640	3.947791	3.958697	28.800000	7.730000	18.620871
8559.995604	7.634752	0.027174	0.046921	12.013579	0.180333	0.090882	12.157291	0.089749	0.089669	8.495565	3.944006	3.957327	28.800000	7.730000	18.620871
8589.995320	7.634539	0.027687	0.046909	12.015022	0.181090	0.090876	12.125787	0.089923	0.089803	8.491745	3.946608	3.955575	28.800000	7.730000	18.620871
8619.996036	7.635813	0.025645	0.046985	12.021939	0.180995	0.090846	12.097345	0.090112	0.089924	8.486787	3.937777	3.953229	28.800000	7.730000	18.620871
8649.995752	7.636294	0.069947	0.047015	12.025832	0.180869	0.090830	12.073560	0.090112	0.090026	8.480793	3.934071	3.950460	28.800000	7.730000	18.620871
8679.995468	7.636722	0.068702	0.047038	12.025096	0.181492	0.090833	12.061144	0.089812	0.090079	8.475323	3.945189	3.947974	28.800000	7.730000	18.620871
8709.995183	7.637040	0.065099	0.047059	12.030901	0.181452	0.090808	12.054093	0.089923	0.090109	8.469937	3.937856	3.945444	28.800000	7.730000	18.620871
8739.995899	7.638672	0.034955	0.047154	12.036638	0.179403	0.090783	12.060549	0.090577	0.090081	8.465738	3.938171	3.943473	28.800000	7.730000	18.620871
8769.995615	7.641076	0.050768	0.047291	12.037178	0.180514	0.090781	12.082305	0.089797	0.089988	8.463977	3.950314	3.942663	28.800000	7.730000	18.620871
8799.995331	7.641513	0.069459	0.047316	12.038590	0.180010	0.090775	12.110446	0.089403	0.089868	8.462545	3.937225	3.941995	28.800000	7.730000	18.620871
8829.996047	7.642372	0.025196	0.047367	12.042557	0.179300	0.090758	12.146113	0.089048	0.089717	8.461272	3.941641	3.941371	28.800000	7.730000	18.620871
8859.995763	7.641965	0.033283	0.047344	12.044962	0.180302	0.090747	12.184119	0.089229	0.089555	8.460047	3.936594	3.940782	28.800000	7.730000	18.620871
8889.995479	7.641318	0.065651	0.047306	12.040392	0.179356	0.090767	12.224569	0.089261	0.089384	8.458699	3.937777	3.940220	28.800000	7.730000	18.620871
8919.995195	7.640645	0.037729	0.047269	12.042299	0.179805	0.090759	12.255802	0.089071	0.089252	8.458154	3.934150	3.939950	28.800000	7.730000	18.620871
8949.995911	7.640153	0.024612	0.047243	12.045408	0.179009	0.090745	12.290216	0.088591	0.089107	8.457094	3.930444	3.939433	28.800000	7.730000	18.620871
8979.995626	7.639243	0.060204	0.047191	12.044342	0.179702	0.090750	12.320460	0.088599	0.088979	8.455470	3.929183	3.938699	28.800000	7.730000	18.620871
9009.995343	7.639552	0.023548	0.047206	12.040953	0.179285	0.090764	12.353332	0.087944	0.088841	8.452224	3.927921	3.937259	28.800000	7.730000	18.620871
9039.996058	7.640004	0.066629	0.047235	12.046299	0.179884	0.090741	12.378818	0.088575	0.088734	8.449030	3.924215	3.935742	28.800000	7.730000	18.620871
9069.995774	7.638280	0.045037	0.047138	12.047335	0.178985	0.090737	12.406662	0.088575	0.088617	8.444225	3.922954	3.933534	28.800000	7.730000	18.620871
9099.995490	7.635294	0.060456	0.046970	12.048887	0.179190	0.090730	12.426747	0.087984	0.088533	8.440151	3.922875	3.931668	28.800000	7.730000	18.620871
9129.995206	7.633826	0.055490	0.046886	12.048897	0.178615	0.090730	12.446352	0.088236	0.088451	8.436702	3.919327	3.930087	28.800000	7.730000	18.620871
9159.995922	7.633260	0.068891	0.046854	12.048851	0.178946	0.090730	12.465060	0.088118	0.088372	8.432549	3.925398	3.928202	28.800000	7.730000	18.620871
9189.995638	7.633369	0.050066	0.046862	12.051170	0.178922	0.090720	12.485279	0.087314	0.088288	8.428953	3.916803	3.926536	28.800000	7.730000	18.620871
9219.995354	7.632685	0.041048	0.046825	12.055175	0.178425	0.090703	12.502142	0.087487	0.088218	8.424623	3.920509	3.924512	28.800000	7.730000	18.620871
9249.996070	7.632149	0.061970	0.046799	12.062899	0.178165	0.090670	12.519649	0.087534	0.088145	8.421827	3.920509	3.923155	28.800000	7.730000	18.620871
9279.995786	7.631253	0.067314	0.046750	12.067050	0.178670	0.090652	12.541651	0.087645	0.088053	8.418251	3.914201	3.921478	28.800000	7.730000	18.620871
9309.995502	7.629575	0.048521	0.046659	12.075233	0.178023	0.090617	12.556956	0.088535	0.087989	8.415190	3.914201	3.919990	28.800000	7.730000	18.620871
9339.995217	7.629877	0.027174	0.046675	12.072831	0.178260	0.090627	12.579426	0.087802	0.087896	8.413375	3.912940	3.919189	28.800000	7.730000	18.620871
9369.995934	7.629659	0.052912	0.046662	12.071863	0.178118	0.090631	12.602912	0.087455	0.087799	8.410001	3.909234	3.917662	28.800000	7.730000	18.620871
9399.995649	7.628222	0.068718	0.046579	12.067551	0.178299	0.090650	12.623461	0.087377	0.087713	8.406766	3.904188	3.916228	28.800000	7.730000	18.620871
9429.995365	7.628944	0.065951	0.046620	12.067930	0.177960	0.090648	12.638295	0.087392	0.087652	8.403411	3.905528	3.914701	28.800000	7.730000	18.620871
9459.996081	7.629632	0.045234	0.046656	12.063195	0.177495	0.090669	12.661781	0.087440	0.087555	8.400984	3.912861	3.913642	28.800000	7.730000	18.620871
9489.995797	7.628850	0.058005	0.046613	12.065261	0.178110	0.090660	12.679374	0.087148	0.087482	8.396991	3.903005	3.911803	28.800000	7.730000	18.620871
9519.995513	7.628104	0.028223	0.046570	12.064198	0.177834	0.090664	12.695734	0.086415	0.087414	8.394635	3.906159	3.910736	28.800000	7.730000	18.620871
9549.995229	7.628155	0.062340	0.046574	12.065443	0.178331	0.090659	12.717840	0.087377	0.087323	8.392093	3.903163	3.909562	28.800000	7.730000	18.620871
9579.995944	7.627488	0.043232	0.046540	12.073435	0.177795	0.090625	12.733291	0.087637	0.087260	8.389332	3.903399	3.908215	28.800000	7.730000	18.620871
9609.995660	7.627458	0.052045	0.046539	12.074073	0.176928	0.090622	12.752185	0.086982	0.087182	8.387024	3.899299	3.907159	28.800000	7.730000	18.620871
9639.995377	7.628340	0.056396	0.046587	12.070097	0.177621	0.090639	12.771399	0.086273	0.087103	8.383350	3.898038	3.905523	28.800000	7.730000	18.620871
9669.995092	7.625783	0.023083	0.046445	12.076594	0.177566	0.090611	12.780171	0.087140	0.087067	8.381669	3.901665	3.904687	28.800000	7.730000	18.620871
9699.995808	7.625773	0.064926	0.046443	12.073147	0.176494	0.090626	12.796828	0.086659	0.086998	8.379195	3.899299	3.903600	28.800000	7.730000	18.620871
9729.995524	7.627660	0.024525	0.046547	12.066826	0.177282	0.090653	12.817764	0.087479	0.086912	8.377153	3.897959	3.902737	28.800000	7.730000	18.620871
9759.995240	7.627267	0.062127	0.046526	12.069169	0.177574	0.090643	12.828806	0.086707	0.086867	8.373666	3.892991	3.901116	28.800000	7.730000	18.620871
9789.995956	7.626730	0.024581	0.046500	12.077689	0.177692	0.090606	12.837406	0.086801	0.086832	8.371464	3.895514	3.900023	28.800000	7.730000	18.620871
9819.995672	7.626314	0.026796	0.046475	12.076650	0.176187	0.090611	12.855988	0.086817	0.086756	8.368969	3.889285	3.898897	28.800000	7.730000	18.620871
9849.995388	7.627039	0.024644	0.046520	12.082954	0.176928	0.090584	12.870754	0.085989	0.086695	8.365798	3.886762	3.897380	28.800000	7.730000	18.620871
9879.995104	7.626892	0.061252	0.046514	12.088223	0.176612	0.090561	12.884195	0.086580	0.086640	8.363017	3.890626	3.896049	28.800000	7.730000	18.620871
9909.995820	7.627148	0.058320	0.046534	12.098443	0.177069	0.090517	12.897004	0.086439	0.086588	8.359768	3.888024	3.894453	28.800000	7.730000	18.620871
9939.995535	7.625608	0.027056	0.046447	12.098980	0.177085	0.090515	12.911545	0.086880	0.086529	8.357228	3.889364	3.893293	28.800000	7.730000	18.620871
9969.995251	7.625611	0.036933	0.046448	12.099824	0.176660	0.090511	12.927396	0.086344	0.086464	8.353744	3.884318	3.891695	28.800000	7.730000	18.620871
9999.995967	7.626735	0.068000	0.046509	12.096392	0.176344	0.090526	12.940979	0.086360	0.086409	8.350417	3.880691	3.890216	28.800000	7.730000	18.620871
10029.995683	7.627750	0.050319	0.046565	12.093424	0.176147	0.090539	12.955014	0.086100	0.086352	8.347559	3.881795	3.888946	28.800000	7.730000	18.620871
10059.995399	7.626577	0.034947	0.046493	12.084457	0.176620	0.090577	12.972812	0.086328	0.086279	8.344813	3.878089	3.887789	28.800000	7.730000	18.620871
10089.995115	7.626349	0.023406	0.046478	12.082522	0.176746	0.090586	12.986202	0.086226	0.086225	8.341759	3.883135	3.886419	28.800000	7.730000	18.620871
10119.995831	7.626318	0.031959	0.046479	12.083110	0.176912	0.090583	12.999152	0.085903	0.086172	8.337476	3.877064	3.884464	28.800000	7.730000	18.620871
10149.995547	7.626994	0.065194	0.046520	12.088095	0.175390	0.090562	13.008433	0.085445	0.086134	8.334502	3.880612	3.883049	28.800000	7.730000	18.620871
10179.995263	7.625420	0.025479	0.046432	12.090527	0.176336	0.090551	13.020080	0.086691	0.086087	8.331839	3.870835	3.881810	28.800000	7.730000	18.620871
10209.995979	7.625235	0.061040	0.046423	12.092663	0.175651	0.090542	13.033201	0.085690	0.086034	8.329021	3.870677	3.880495	28.800000	7.730000	18.620871
10239.995695	7.624371	0.052983	0.046374	12.093074	0.176667	0.090540	13.046289	0.085540	0.085981	8.325024	3.867050	3.878666	28.800000	7.730000	18.620871
10269.995410	7.626315	0.042609	0.046482	12.088891	0.176423	0.090558	13.064318	0.085966	0.085908	8.321125	3.870756	3.876938	28.800000	7.730000	18.620871
10299.995126	7.625682	0.038463	0.046449	12.093971	0.176675	0.090536	13.076192	0.085879	0.085860	8.317842	3.861925	3.875389	28.800000	7.730000	18.620871
10329.995842	7.625832	0.039811	0.046458	12.096090	0.176368	0.090527	13.088021	0.086218	0.085812	8.312590	3.853331	3.872960	28.800000	7.730000	18.620871
10359.995558	7.625183	0.054930	0.046421	12.095390	0.176502	0.090530	13.103909	0.086147	0.085748	8.307934	3.862083	3.870854	28.800000	7.730000	18.620871
10389.995274	7.624791	0.065903	0.046400	12.096981	0.176447	0.090524	13.117164	0.085603	0.085694	8.304212	3.860821	3.869134	28.800000	7.730000	18.620871
10419.995990	7.625589	0.050981	0.046447	12.100676	0.175879	0.090508	13.129685	0.086147	0.085644	8.301586	3.860821	3.867895	28.800000	7.730000	18.620871
10449.995706	7.627411	0.069025	0.046547	12.094478	0.175698	0.090534	13.151042	0.085934	0.085558	8.298385	3.863344	3.866504	28.800000	7.730000	18.620871
10479.995422	7.627045	0.067811	0.046526	12.093501	0.174957	0.090538	13.168481	0.084712	0.085487	8.294743	3.867129	3.864858	28.800000	7.730000	18.620871
10509.995138	7.629026	0.029381	0.046639	12.095357	0.175855	0.090530	13.180723	0.085280	0.085438	8.291839	3.860742	3.863513	28.800000	7.730000	18.620871
10539.995853	7.630053	0.067661	0.046698	12.098567	0.175706	0.090517	13.195711	0.085335	0.085378	8.288556	3.856011	3.861982	28.800000	7.730000	18.620871
10569.995569	7.631580	0.045502	0.046789	12.107475	0.175461	0.090478	13.200370	0.085343	0.085359	8.286572	3.858298	3.860977	28.800000	7.730000	18.620871
10599.995286	7.628232	0.027742	0.046613	12.133815	0.175398	0.090366	13.206449	0.085477	0.085335	8.284200	3.853331	3.859601	28.800000	7.730000	18.620871
10629.996001	7.625260	0.026701	0.046448	12.139358	0.175753	0.090342	13.214520	0.085106	0.085302	8.283473	3.859560	3.859211	28.800000	7.730000	18.620871
10659.995717	7.621565	0.066668	0.046240	12.141614	0.176644	0.090332	13.223144	0.084665	0.085268	8.283183	3.863423	3.859051	28.800000	7.730000	18.620871
10689.995433	7.617613	0.054867	0.046017	12.142869	0.175249	0.090327	13.236597	0.084476	0.085214	8.283738	3.853331	3.859286	28.800000	7.730000	18.620871
10719.995149	7.614485	0.063625	0.045840	12.142530	0.175398	0.090328	13.253172	0.084894	0.085147	8.283172	3.864448	3.859034	28.800000	7.730000	18.620871
10749.995865	7.611303	0.058824	0.045649	12.121147	0.175690	0.090420	13.267334	0.084933	0.085091	8.282357	3.855775	3.858899	28.800000	7.730000	18.620871
10779.995581	7.607205	0.058777	0.045415	12.118014	0.175587	0.090433	13.281259	0.084838	0.085035	8.281816	3.858298	3.858691	28.800000	7.730000	18.620871
10809.995296	7.604982	0.040134	0.045290	12.119816	0.175706	0.090426	13.283457	0.085571	0.085026	8.280313	3.854592	3.857985	28.800000	7.730000	18.620871
10839.996013	7.600782	0.066857	0.045054	12.122368	0.175327	0.090415	13.271562	0.085500	0.085074	8.279871	3.844657	3.857752	28.800000	7.730000	18.620871
10869.995728	7.597499	0.023138	0.044872	12.129453	0.175855	0.090384	13.249916	0.085272	0.085160	8.277295	3.838507	3.856495	28.800000	7.730000	18.620871
10899.995444	7.593731	0.045471	0.044661	12.134667	0.176116	0.090362	13.219295	0.086092	0.085283	8.274793	3.850886	3.855302	28.800000	7.730000	18.620871
10929.995160	7.594732	0.054985	0.044721	12.139792	0.175446	0.090340	13.177711	0.086171	0.085450	8.271493	3.834880	3.853731	28.800000	7.730000	18.620871
10959.995876	7.595959	0.033425	0.044793	12.145457	0.176817	0.090316	13.129528	0.086076	0.085644	8.266939	3.838901	3.851599	28.800000	7.730000	18.620871
10989.995592	7.600081	0.042940	0.045024	12.141252	0.176699	0.090334	13.082968	0.086982	0.085832	8.259635	3.826365	3.848302	28.800000	7.730000	18.620871
11019.995308	7.602877	0.063649	0.045183	12.140601	0.176518	0.090336	13.028958	0.086596	0.086051	8.252672	3.827705	3.845148	28.800000	7.730000	18.620871
11049.996024	7.607502	0.057886	0.045446	12.145892	0.176652	0.090314	12.977864	0.086052	0.086259	8.245680	3.826522	3.841900	28.800000	7.730000	18.620871
11079.995740	7.610545	0.067811	0.045620	12.148462	0.177779	0.090303	12.930970	0.087006	0.086449	8.238833	3.825418	3.838737	28.800000	7.730000	18.620871
11109.995456	7.612844	0.052037	0.045751	12.150190	0.176841	0.090295	12.884980	0.087180	0.086637	8.233888	3.825261	3.836474	28.800000	7.730000	18.620871
11139.995172	7.614864	0.043161	0.045870	12.158897	0.176407	0.090258	12.840723	0.087369	0.086818	8.228405	3.823053	3.833868	28.800000	7.730000	18.620871
11169.995887	7.617649	0.047347	0.046026	12.155535	0.177401	0.090272	12.807569	0.086896	0.086954	8.223594	3.823053	3.831714	28.800000	7.730000	18.620871
11199.995604	7.619593	0.036752	0.046134	12.152378	0.178094	0.090286	12.769171	0.087479	0.087112	8.219587	3.824236	3.829928	28.800000	7.730000	18.620871
11229.995319	7.623211	0.067992	0.046341	12.155956	0.177992	0.090271	12.727292	0.087392	0.087284	8.216131	3.824314	3.828308	28.800000	7.730000	18.620871
11259.996035	7.627526	0.025487	0.046583	12.152515	0.179017	0.090285	12.689837	0.086975	0.087439	8.213799	3.828967	3.827284	28.800000	7.730000	18.620871
11289.995751	7.631022	0.023130	0.046777	12.144868	0.179277	0.090318	12.651857	0.088567	0.087596	8.212394	3.826522	3.826732	28.800000	7.730000	18.620871
11319.995467	7.633978	0.024360	0.046942	12.139462	0.178670	0.090341	12.610311	0.088196	0.087768	8.211548	3.829440	3.826408	28.800000	7.730000	18.620871
11349.995183	7.634603	0.054528	0.046978	12.140826	0.179529	0.090335	12.569627	0.088457	0.087937	8.210393	3.819426	3.825863	28.800000	7.730000	18.620871
11379.995899	7.633925	0.069466	0.046945	12.151635	0.178354	0.090289	12.524136	0.088669	0.088126	8.209339	3.827784	3.825265	28.800000	7.730000	18.620871
11409.995615	7.634551	0.023177	0.046986	12.161754	0.178149	0.090246	12.485213	0.088441	0.088288	8.209139	3.830228	3.825060	28.800000	7.730000	18.620871
11439.995330	7.638571	0.038210	0.047212	12.159878	0.178922	0.090254	12.454938	0.088717	0.088415	8.209826	3.831411	3.825396	28.800000	7.730000	18.620871
11469.996047	7.639473	0.028924	0.047268	12.169526	0.179411	0.090213	12.428127	0.088835	0.088527	8.210949	3.831411	3.825800	28.800000	7.730000	18.620871
11499.995762	7.636753	0.026780	0.047123	12.186329	0.178867	0.090141	12.397292	0.089040	0.088656	8.212371	3.826522	3.826258	28.800000	7.730000	18.620871
11529.995478	7.636341	0.067243	0.047096	12.178855	0.179679	0.090173	12.375871	0.088851	0.088746	8.213527	3.835984	3.826872	28.800000	7.730000	18.620871
11559.995194	7.634177	0.053748	0.046976	12.184768	0.179143	0.090147	12.348722	0.089158	0.088860	8.215997	3.837403	3.827931	28.800000	7.730000	18.620871
11589.995910	7.635027	0.069585	0.047030	12.196186	0.179324	0.090099	12.319925	0.090010	0.088981	8.218210	3.833776	3.828812	28.800000	7.730000	18.620871
11619.995626	7.639395	0.069703	0.047278	12.197196	0.180144	0.090094	12.290953	0.089426	0.089103	8.221522	3.847496	3.830314	28.800000	7.730000	18.620871
11649.995342	7.640185	0.053093	0.047319	12.189702	0.179545	0.090126	12.268962	0.089403	0.089196	8.225642	3.842292	3.832279	28.800000	7.730000	18.620871
11679.996058	7.639012	0.059392	0.047257	12.198760	0.179813	0.090088	12.240068	0.089505	0.089318	8.231359	3.845840	3.834783	28.800000	7.730000	18.620871
11709.995774	7.639795	0.030367	0.047297	12.190935	0.179915	0.090121	12.219894	0.089229	0.089404	8.234886	3.845919	3.836478	28.800000	7.730000	18.620871
11739.995490	7.643899	0.024123	0.047526	12.183192	0.178693	0.090154	12.196165	0.090396	0.089504	8.238246	3.848521	3.838097	28.800000	7.730000	18.620871
11769.995205	7.645832	0.058785	0.047635	12.182227	0.180948	0.090158	12.168259	0.089781	0.089623	8.242418	3.847180	3.840010	28.800000	7.730000	18.620871
11799.995922	7.646882	0.034119	0.047691	12.176898	0.180097	0.090181	12.142255	0.089931	0.089733	8.245694	3.842607	3.841564	28.800000	7.730000	18.620871
11829.995637	7.649176	0.025203	0.047813	12.161585	0.180522	0.090247	12.122338	0.090081	0.089818	8.247684	3.846550	3.842641	28.800000	7.730000	18.620871
11859.995353	7.650423	0.065730	0.047880	12.154010	0.179253	0.090279	12.100071	0.089836	0.089913	8.249707	3.844657	3.843647	28.800000	7.730000	18.620871
11889.996069	7.652623	0.064122	0.048008	12.160987	0.180743	0.090249	12.077087	0.090774	0.090011	8.252743	3.845998	3.844956	28.800000	7.730000	18.620871
11919.995785	7.656143	0.024715	0.048206	12.158492	0.180333	0.090260	12.057995	0.090396	0.090092	8.253580	3.849704	3.845362	28.800000	7.730000	18.620871
11949.995501	7.658685	0.044359	0.048348	12.155280	0.180199	0.090274	12.038988	0.090490	0.090173	8.254686	3.849704	3.845904	28.800000	7.730000	18.620871
11979.995217	7.659863	0.037824	0.048415	12.154145	0.180909	0.090278	12.018435	0.090869	0.090261	8.254983	3.847259	3.846050	28.800000	7.730000	18.620871
12009.995933	7.660388	0.027292	0.048449	12.163640	0.180656	0.090238	11.990173	0.090238	0.090382	8.255466	3.848521	3.846164	28.800000	7.730000	18.620871
12039.995649	7.662121	0.054615	0.048550	12.169187	0.181074	0.090214	11.962721	0.091247	0.090500	8.255784	3.844736	3.846245	28.800000	7.730000	18.620871
12069.995365	7.661752	0.057390	0.048532	12.174342	0.180191	0.090192	11.940179	0.090948	0.090597	8.256054	3.844657	3.846311	28.800000	7.730000	18.620871
12099.996080	7.659817	0.025172	0.048428	12.185731	0.180909	0.090143	11.914507	0.090215	0.090707	8.256311	3.851123	3.846304	28.800000	7.730000	18.620871
12129.995796	7.659573	0.070641	0.048420	12.195408	0.181247	0.090102	11.884575	0.091239	0.090836	8.258597	3.851044	3.847236	28.800000	7.730000	18.620871
12159.995512	7.659343	0.067898	0.048402	12.186830	0.182067	0.090139	11.860724	0.090822	0.090939	8.258250	3.846077	3.847173	28.800000	7.730000	18.620871
12189.995228	7.659553	0.038147	0.048410	12.179761	0.181287	0.090169	11.838998	0.091389	0.091033	8.257433	3.842371	3.846878	28.800000	7.730000	18.620871
12219.995944	7.657462	0.058777	0.048298	12.191495	0.181705	0.090119	11.804818	0.091641	0.091181	8.257403	3.842371	3.846732	28.800000	7.730000	18.620871
12249.995660	7.658028	0.035940	0.048329	12.188830	0.182659	0.090130	11.777542	0.091373	0.091299	8.256712	3.847259	3.846448	28.800000	7.730000	18.620871
12279.995376	7.656995	0.066022	0.048273	12.194616	0.181902	0.090105	11.757487	0.091192	0.091386	8.256067	3.843632	3.846089	28.800000	7.730000	18.620871
12309.995092	7.658111	0.025172	0.048333	12.188247	0.180956	0.090133	11.742267	0.091555	0.091452	8.254164	3.841109	3.845291	28.800000	7.730000	18.620871
12339.995808	7.659390	0.067188	0.048405	12.186972	0.181910	0.090138	11.724736	0.091413	0.091528	8.253161	3.841109	3.844849	28.800000	7.730000	18.620871
12369.995523	7.660859	0.044162	0.048479	12.169409	0.182264	0.090213	11.717834	0.091594	0.091558	8.251580	3.839848	3.844325	28.800000	7.730000	18.620871
12399.995239	7.660178	0.028569	0.048434	12.157882	0.182115	0.090262	11.706324	0.091767	0.091608	8.250369	3.836142	3.843899	28.800000	7.730000	18.620871
12429.995955	7.662242	0.029027	0.048544	12.143418	0.181200	0.090324	11.691527	0.091901	0.091673	8.247450	3.838665	3.842731	28.800000	7.730000	18.620871
12459.995671	7.665177	0.053235	0.048714	12.151438	0.182225	0.090290	11.671894	0.091933	0.091758	8.246800	3.843553	3.842347	28.800000	7.730000	18.620871
12489.995387	7.665166	0.065493	0.048716	12.156045	0.182059	0.090270	11.650703	0.092627	0.091851	8.245096	3.839926	3.841519	28.800000	7.730000	18.620871
12519.995103	7.667365	0.068993	0.048842	12.159366	0.182296	0.090256	11.627107	0.092311	0.091954	8.244350	3.839926	3.841141	28.800000	7.730000	18.620871
12549.995819	7.667399	0.029405	0.048846	12.163434	0.182856	0.090239	11.604178	0.091712	0.092054	8.243281	3.841188	3.840607	28.800000	7.730000	18.620871
12579.995535	7.666365	0.058446	0.048795	12.178380	0.182414	0.090175	11.578457	0.092390	0.092167	8.243772	3.844736	3.840666	28.800000	7.730000	18.620871
12609.995251	7.665645	0.061851	0.048761	12.190372	0.182493	0.090124	11.552144	0.092642	0.092282	8.245239	3.842371	3.841200	28.800000	7.730000	18.620871
12639.995966	7.667479	0.024470	0.048862	12.186010	0.183037	0.090142	11.536052	0.092130	0.092353	8.246137	3.851044	3.841662	28.800000	7.730000	18.620871
12669.995683	7.666936	0.046495	0.048831	12.184423	0.182840	0.090149	11.521368	0.093383	0.092417	8.247035	3.845998	3.842088	28.800000	7.730000	18.620871
12699.995399	7.665992	0.054985	0.048776	12.182608	0.182911	0.090157	11.508462	0.092351	0.092474	8.247336	3.842292	3.842246	28.800000	7.730000	18.620871
12729.995114	7.667287	0.058328	0.048838	12.159983	0.183195	0.090253	11.497143	0.092808	0.092524	8.247860	3.843553	3.842738	28.800000	7.730000	18.620871
12759.995830	7.666147	0.070948	0.048767	12.147724	0.182367	0.090306	11.488712	0.092966	0.092561	8.248452	3.855933	3.843147	28.800000	7.730000	18.620871
12789.995546	7.664970	0.026315	0.048704	12.155168	0.183707	0.090274	11.465663	0.092508	0.092662	8.251266	3.840163	3.844343	28.800000	7.730000	18.620871
12819.995262	7.668013	0.059479	0.048874	12.148306	0.182178	0.090303	11.446818	0.092966	0.092745	8.251953	3.847338	3.844736	28.800000	7.730000	18.620871
12849.995978	7.668757	0.066991	0.048911	12.138399	0.183455	0.090346	11.427040	0.092524	0.092833	8.254332	3.848600	3.845932	28.800000	7.730000	18.620871
12879.995694	7.668422	0.034474	0.048893	12.141793	0.183439	0.090331	11.407944	0.093399	0.092917	8.255503	3.845998	3.846426	28.800000	7.730000	18.620871
12909.995410	7.668385	0.036965	0.048885	12.131067	0.183297	0.090377	11.390858	0.094038	0.092993	8.256715	3.847338	3.847100	28.800000	7.730000	18.620871
12939.995126	7.666785	0.032282	0.048796	12.134123	0.183557	0.090364	11.370952	0.093470	0.093081	8.257296	3.854986	3.847330	28.800000	7.730000	18.620871
12969.995842	7.665988	0.067645	0.048758	12.147629	0.183384	0.090306	11.348942	0.093115	0.093179	8.259889	3.861137	3.848365	28.800000	7.730000	18.620871
12999.995557	7.665117	0.056980	0.048723	12.174347	0.183163	0.090192	11.325286	0.093628	0.093284	8.263833	3.860112	3.849865	28.800000	7.730000	18.620871
13029.995273	7.663280	0.040662	0.048628	12.193472	0.183336	0.090110	11.308387	0.092840	0.093359	8.267821	3.858377	3.851468	28.800000	7.730000	18.620871
13059.995989	7.661874	0.036106	0.048561	12.216666	0.184566	0.090011	11.288742	0.094306	0.093446	8.271384	3.859796	3.852829	28.800000	7.730000	18.620871
13089.995705	7.663800	0.058746	0.048662	12.200938	0.183983	0.090078	11.283316	0.093486	0.093470	8.272485	3.856011	3.853511	28.800000	7.730000	18.620871
13119.995421	7.662019	0.066558	0.048554	12.187217	0.184290	0.090137	11.273420	0.094243	0.093514	8.274461	3.852306	3.854563	28.800000	7.730000	18.620871
13149.995137	7.662384	0.050342	0.048562	12.163462	0.183392	0.090239	11.265431	0.094117	0.093550	8.274714	3.857273	3.854945	28.800000	7.730000	18.620871
13179.995853	7.665455	0.068773	0.048724	12.141046	0.183802	0.090335	11.253610	0.093896	0.093603	8.276564	3.857904	3.856042	28.800000	7.730000	18.620871
13209.995569	7.667357	0.071216	0.048824	12.124903	0.183975	0.090404	11.242113	0.093849	0.093654	8.277998	3.859717	3.856876	28.800000	7.730000	18.620871
13239.995285	7.670296	0.053212	0.048990	12.126039	0.184787	0.090399	11.221107	0.094038	0.093748	8.279979	3.857273	3.857764	28.800000	7.730000	18.620871
13269.996001	7.671115	0.030280	0.049039	12.133787	0.184409	0.090366	11.203936	0.094266	0.093824	8.279659	3.851123	3.857527	28.800000	7.730000	18.620871
13299.995717	7.669989	0.064642	0.048976	12.132257	0.184117	0.090372	11.196935	0.094069	0.093856	8.278813	3.853567	3.857160	28.800000	7.730000	18.620871
13329.995432	7.669281	0.058028	0.048955	12.168633	0.183344	0.090216	11.182822	0.094802	0.093919	8.278962	3.863502	3.856823	28.800000	7.730000	18.620871
13359.995148	7.671527	0.072028	0.049103	12.207273	0.184204	0.090051	11.167885	0.094929	0.093986	8.279685	3.856563	3.856717	28.800000	7.730000	18.620871
13389.995864	7.671863	0.069474	0.049130	12.224186	0.184275	0.089979	11.158988	0.094337	0.094025	8.279626	3.851123	3.856500	28.800000	7.730000	18.620871
13419.995580	7.672527	0.033213	0.049171	12.229111	0.185173	0.089958	11.144458	0.094692	0.094091	8.280065	3.857431	3.856648	28.800000	7.730000	18.620871
13449.995296	7.673517	0.057800	0.049232	12.238527	0.183368	0.089918	11.122905	0.094432	0.094187	8.281133	3.861215	3.857029	28.800000	7.730000	18.620871
13479.996012	7.673035	0.061544	0.049198	12.226843	0.184858	0.089968	11.101603	0.094487	0.094283	8.281079	3.855617	3.857134	28.800000	7.730000	18.620871
13509.995728	7.674736	0.046921	0.049281	12.201677	0.185023	0.090075	11.083949	0.094337	0.094362	8.280136	3.864685	3.856988	28.800000	7.730000	18.620871
13539.995444	7.677024	0.064681	0.049407	12.193448	0.184937	0.090110	11.068387	0.094424	0.094433	8.281295	3.861137	3.857609	28.800000	7.730000	18.620871
13569.995160	7.676193	0.051202	0.049360	12.194542	0.184795	0.090106	11.057687	0.095252	0.094481	8.282417	3.857431	3.858109	28.800000	7.730000	18.620871
13599.995875	7.673773	0.071406	0.049229	12.206670	0.185118	0.090054	11.041681	0.094629	0.094553	8.282646	3.851202	3.858074	28.800000	7.730000	18.620871
13629.995592	7.673084	0.030414	0.049186	12.198844	0.184472	0.090087	11.035921	0.094668	0.094579	8.281390	3.854829	3.857587	28.800000	7.730000	18.620871
13659.995307	7.673357	0.040299	0.049193	12.185694	0.184353	0.090144	11.034959	0.093833	0.094583	8.280095	3.854829	3.857146	28.800000	7.730000	18.620871
13689.996023	7.672976	0.048190	0.049172	12.182554	0.185465	0.090157	11.023922	0.094747	0.094633	8.280353	3.854908	3.857301	28.800000	7.730000	18.620871
13719.995739	7.672501	0.033205	0.049145	12.182861	0.184897	0.090156	11.011722	0.093990	0.094688	8.280564	3.858613	3.857393	28.800000	7.730000	18.620871
13749.995455	7.672319	0.028010	0.049132	12.176940	0.184960	0.090181	11.005450	0.095078	0.094716	8.280355	3.857352	3.857363	28.800000	7.730000	18.620871
13779.995171	7.674345	0.059692	0.049240	12.164568	0.185118	0.090234	10.998143	0.094850	0.094749	8.278838	3.854986	3.856810	28.800000	7.730000	18.620871
13809.995887	7.675417	0.041671	0.049299	12.161275	0.185828	0.090248	10.980716	0.095685	0.094828	8.278080	3.854829	3.856499	28.800000	7.730000	18.620871
13839.995603	7.676072	0.029389	0.049334	12.158562	0.185615	0.090260	10.969991	0.095007	0.094877	8.275445	3.851202	3.855331	28.800000	7.730000	18.620871
13869.995318	7.675673	0.071366	0.049309	12.154048	0.185638	0.090279	10.959689	0.094905	0.094923	8.273510	3.853646	3.854498	28.800000	7.730000	18.620871
13899.996035	7.675693	0.058690	0.049308	12.149547	0.185339	0.090298	10.948871	0.095299	0.094973	8.273237	3.856090	3.854427	28.800000	7.730000	18.620871
13929.995750	7.673942	0.062143	0.049215	12.160711	0.185307	0.090250	10.934343	0.095315	0.095038	8.273380	3.851202	3.854365	28.800000	7.730000	18.620871
13959.995466	7.675166	0.035420	0.049286	12.163418	0.185055	0.090239	10.926483	0.095362	0.095074	8.273213	3.853725	3.854258	28.800000	7.730000	18.620871
13989.995182	7.676969	0.047047	0.049389	12.165846	0.185173	0.090228	10.914910	0.095394	0.095127	8.272056	3.849940	3.853702	28.800000	7.730000	18.620871
14019.995898	7.678782	0.062663	0.049487	12.157600	0.185370	0.090264	10.908108	0.095504	0.095157	8.270879	3.852463	3.853257	28.800000	7.730000	18.620871
14049.995614	7.677504	0.071737	0.049410	12.148749	0.185764	0.090302	10.897785	0.094739	0.095204	8.270345	3.858613	3.853116	28.800000	7.730000	18.620871
14079.995330	7.678322	0.068103	0.049445	12.127261	0.186025	0.090394	10.893032	0.095370	0.095226	8.270324	3.854908	3.853346	28.800000	7.730000	18.620871
14109.996046	7.678698	0.049049	0.049463	12.120170	0.185930	0.090424	10.885040	0.094448	0.095262	8.271568	3.864764	3.853997	28.800000	7.730000	18.620871
14139.995762	7.679409	0.067953	0.049499	12.112648	0.185496	0.090456	10.880696	0.095591	0.095282	8.273704	3.868548	3.855057	28.800000	7.730000	18.620871
14169.995478	7.680363	0.062868	0.049550	12.105713	0.186371	0.090486	10.872782	0.094873	0.095318	8.276783	3.866025	3.856538	28.800000	7.730000	18.620871
14199.995193	7.677623	0.055987	0.049391	12.099086	0.186166	0.090514	10.867032	0.095748	0.095344	8.279586	3.862398	3.857888	28.800000	7.730000	18.620871
14229.995909	7.677294	0.029957	0.049372	12.097945	0.187081	0.090519	10.859801	0.095591	0.095377	8.282188	3.862398	3.859089	28.800000	7.730000	18.620871
14259.995625	7.677589	0.039038	0.049387	12.094138	0.185764	0.090536	10.848060	0.095756	0.095431	8.283879	3.861215	3.859902	28.800000	7.730000	18.620871
14289.995341	7.678115	0.060772	0.049416	12.094315	0.186986	0.090535	10.837532	0.094550	0.095479	8.287019	3.867287	3.861335	28.800000	7.730000	18.620871
14319.996057	7.678156	0.033898	0.049419	12.095347	0.186080	0.090531	10.828427	0.095031	0.095520	8.289922	3.862556	3.862645	28.800000	7.730000	18.620871
14349.995773	7.678140	0.026961	0.049424	12.105200	0.186434	0.090488	10.815110	0.095725	0.095581	8.291753	3.872254	3.863366	28.800000	7.730000	18.620871
14379.995489	7.679032	0.056081	0.049476	12.108451	0.186387	0.090474	10.805342	0.095528	0.095626	8.293440	3.858692	3.864099	28.800000	7.730000	18.620871
14409.995205	7.681111	0.034127	0.049592	12.105086	0.186529	0.090489	10.823929	0.095433	0.095541	8.293826	3.867444	3.864313	28.800000	7.730000	18.620871
14439.995921	7.681656	0.068166	0.049621	12.101921	0.186064	0.090502	10.829641	0.095559	0.095515	8.296009	3.874777	3.865343	28.800000	7.730000	18.620871
14469.995636	7.682742	0.066731	0.049682	12.102546	0.185512	0.090500	10.838151	0.095346	0.095476	8.299235	3.888576	3.866808	28.800000	7.730000	18.620871
14499.995353	7.682278	0.032408	0.049649	12.088139	0.185615	0.090561	10.871036	0.094976	0.095326	8.305008	3.899930	3.869601	28.800000	7.730000	18.620871
14529.996068	7.679751	0.070744	0.049506	12.087836	0.184960	0.090563	10.909620	0.094597	0.095151	8.311870	3.892439	3.872734	28.800000	7.730000	18.620871
14559.995784	7.677832	0.036760	0.049402	12.096935	0.184614	0.090524	10.938308	0.094503	0.095020	8.318794	3.893780	3.875789	28.800000	7.730000	18.620871
14589.995500	7.676257	0.027702	0.049311	12.092790	0.185678	0.090542	10.988201	0.093352	0.094794	8.326432	3.902216	3.879319	28.800000	7.730000	18.620871
14619.995216	7.673491	0.052077	0.049154	12.093028	0.184952	0.090540	11.036510	0.095173	0.094576	8.333302	3.900955	3.882449	28.800000	7.730000	18.620871
14649.995932	7.668478	0.043421	0.048878	12.107707	0.184952	0.090477	11.063294	0.094069	0.094455	8.341736	3.898353	3.886131	28.800000	7.730000	18.620871
14679.995648	7.664641	0.060984	0.048656	12.098563	0.185079	0.090517	11.091908	0.094858	0.094327	8.348052	3.888418	3.889113	28.800000	7.730000	18.620871
14709.995364	7.662234	0.058225	0.048521	12.100517	0.184795	0.090508	11.099022	0.094440	0.094295	8.355067	3.901034	3.892290	28.800000	7.730000	18.620871
14739.996080	7.660816	0.034742	0.048440	12.098860	0.184708	0.090515	11.109295	0.094203	0.094248	8.361034	3.899772	3.895030	28.800000	7.730000	18.620871
14769.995796	7.660314	0.047946	0.048412	12.100934	0.184424	0.090507	11.123213	0.093249	0.094186	8.365130	3.900955	3.896879	28.800000	7.730000	18.620871
14799.995512	7.659590	0.062474	0.048366	12.090094	0.184219	0.090553	11.154943	0.093029	0.094044	8.367942	3.917119	3.898278	28.800000	7.730000	18.620871
14829.995227	7.659347	0.066487	0.048356	12.097540	0.184211	0.090521	11.182098	0.093612	0.093922	8.371318	3.909549	3.899734	28.800000	7.730000	18.620871
14859.995944	7.659257	0.053566	0.048352	12.099872	0.182761	0.090511	11.223758	0.093707	0.093736	8.376998	3.920903	3.902298	28.800000	7.730000	18.620871
14889.995659	7.660673	0.026764	0.048437	12.109565	0.183344	0.090469	11.263731	0.092989	0.093557	8.380580	3.907026	3.903823	28.800000	7.730000	18.620871
14919.995375	7.661894	0.061292	0.048504	12.105754	0.183297	0.090486	11.305273	0.092485	0.093372	8.383612	3.914517	3.905253	28.800000	7.730000	18.620871
14949.995091	7.661731	0.069719	0.048495	12.105667	0.182934	0.090486	11.345641	0.092248	0.093193	8.386871	3.930996	3.906735	28.800000	7.730000	18.620871
14979.995807	7.662106	0.051785	0.048529	12.129953	0.180609	0.090382	11.394413	0.092170	0.092977	8.392585	3.915778	3.909069	28.800000	7.730000	18.620871
15009.995523	7.661161	0.057642	0.048504	12.185180	0.181815	0.090146	11.445935	0.092240	0.092749	8.400034	3.922086	3.911854	28.800000	7.730000	18.620871
15039.995239	7.660213	0.037272	0.048452	12.187797	0.182233	0.090135	11.493227	0.091783	0.092541	8.404159	3.920982	3.913705	28.800000	7.730000	18.620871
15069.995955	7.658423	0.024983	0.048350	12.186607	0.182501	0.090140	11.544415	0.091752	0.092316	8.408733	3.918380	3.915797	28.800000	7.730000	18.620871
15099.995671	7.658549	0.026575	0.048360	12.191645	0.182351	0.090118	11.579299	0.092343	0.092163	8.412068	3.917198	3.917262	28.800000	7.730000	18.620871
15129.995387	7.658605	0.050035	0.048359	12.183213	0.182383	0.090154	11.599328	0.091775	0.092075	8.412858	3.916961	3.917719	28.800000	7.730000	18.620871
15159.995102	7.659058	0.026236	0.048354	12.124710	0.182296	0.090405	11.610274	0.092162	0.092027	8.411297	3.912309	3.917660	28.800000	7.730000	18.620871
15189.995818	7.658473	0.049270	0.048314	12.113022	0.181650	0.090455	11.613656	0.091925	0.092013	8.409343	3.912151	3.916900	28.800000	7.730000	18.620871
15219.995534	7.657721	0.065273	0.048272	12.113865	0.183076	0.090451	11.600270	0.092248	0.092071	8.407454	3.896145	3.916029	28.800000	7.730000	18.620871
15249.995250	7.656788	0.026796	0.048222	12.117801	0.181728	0.090434	11.575774	0.092934	0.092178	8.403536	3.899614	3.914190	28.800000	7.730000	18.620871
15279.995966	7.656642	0.026126	0.048214	12.118373	0.183289	0.090432	11.552457	0.092753	0.092281	8.397881	3.888418	3.911614	28.800000	7.730000	18.620871
15309.995682	7.656588	0.060835	0.048211	12.119542	0.183447	0.090427	11.521815	0.091972	0.092415	8.392540	3.888339	3.909154	28.800000	7.730000	18.620871
15339.995398	7.656087	0.071035	0.048177	12.109283	0.183352	0.090471	11.487367	0.093060	0.092567	8.384197	3.881006	3.905463	28.800000	7.730000	18.620871
15369.995114	7.656479	0.058722	0.048198	12.106678	0.184282	0.090482	11.450801	0.093273	0.092728	8.376177	3.877222	3.901834	28.800000	7.730000	18.620871
15399.995830	7.657932	0.027072	0.048283	12.111087	0.183817	0.090463	11.418478	0.092280	0.092871	8.368145	3.884870	3.898125	28.800000	7.730000	18.620871
15429.995545	7.659364	0.025408	0.048361	12.106264	0.182848	0.090484	11.388820	0.092784	0.093002	8.360005	3.888497	3.894467	28.800000	7.730000	18.620871
15459.995262	7.659035	0.027277	0.048343	12.106908	0.183502	0.090481	11.362469	0.093163	0.093119	8.353548	3.884712	3.891519	28.800000	7.730000	18.620871
15489.995977	7.658947	0.030446	0.048343	12.116205	0.184007	0.090441	11.337632	0.093313	0.093229	8.348738	3.892203	3.889221	28.800000	7.730000	18.620871
15519.995693	7.660409	0.036996	0.048425	12.114010	0.184046	0.090450	11.320075	0.093320	0.093307	8.344864	3.883529	3.887482	28.800000	7.730000	18.620871
15549.995409	7.660906	0.070925	0.048453	12.113800	0.184062	0.090451	11.299470	0.093439	0.093398	8.341378	3.882268	3.885893	28.800000	7.730000	18.620871
15579.995125	7.660270	0.056207	0.048424	12.128448	0.185047	0.090389	11.276397	0.093013	0.093501	8.339586	3.884712	3.884916	28.800000	7.730000	18.620871
15609.995841	7.661647	0.039007	0.048496	12.115781	0.184117	0.090443	11.259466	0.094369	0.093576	8.338128	3.890941	3.884396	28.800000	7.730000	18.620871
15639.995557	7.662274	0.038959	0.048527	12.107410	0.185071	0.090479	11.239665	0.094314	0.093665	8.338904	3.888497	3.884845	28.800000	7.730000	18.620871
15669.995273	7.662881	0.056278	0.048560	12.106272	0.184732	0.090484	11.217379	0.093770	0.093764	8.339683	3.891414	3.885215	28.800000	7.730000	18.620871
15699.995989	7.663433	0.069498	0.048588	12.098748	0.185142	0.090516	11.198874	0.093368	0.093847	8.342050	3.895909	3.886378	28.800000	7.730000	18.620871
15729.995705	7.665297	0.036862	0.048686	12.085670	0.183368	0.090572	11.182059	0.093990	0.093922	8.344000	3.895199	3.887412	28.800000	7.730000	18.620871
15759.995420	7.665094	0.025968	0.048682	12.099030	0.184432	0.090515	11.163293	0.094787	0.094006	8.347311	3.898432	3.888775	28.800000	7.730000	18.620871
15789.995136	7.662847	0.025598	0.048558	12.104473	0.185094	0.090491	11.148978	0.094180	0.094070	8.350128	3.900876	3.889996	28.800000	7.730000	18.620871
15819.995852	7.665167	0.070728	0.048691	12.102491	0.185213	0.090500	11.134903	0.093896	0.094134	8.354046	3.908445	3.891810	28.800000	7.730000	18.620871
15849.995568	7.664824	0.064090	0.048671	12.106845	0.183794	0.090481	11.124022	0.094605	0.094182	8.359823	3.901034	3.894394	28.800000	7.730000	18.620871
15879.995284	7.664723	0.064697	0.048662	12.100169	0.184826	0.090510	11.117457	0.093659	0.094212	8.365154	3.913492	3.896903	28.800000	7.730000	18.620871
15909.996000	7.662781	0.069530	0.048551	12.099707	0.184637	0.090512	11.110819	0.094369	0.094242	8.371330	3.918459	3.899725	28.800000	7.730000	18.620871
15939.995716	7.662539	0.068008	0.048532	12.089344	0.184543	0.090556	11.119266	0.093943	0.094204	8.377054	3.920903	3.902452	28.800000	7.730000	18.620871
15969.995432	7.661271	0.056743	0.048465	12.098601	0.184345	0.090517	11.134303	0.093588	0.094136	8.386075	3.933361	3.906466	28.800000	7.730000	18.620871
15999.995148	7.661220	0.027482	0.048456	12.086888	0.183833	0.090567	11.167402	0.092832	0.093988	8.395732	3.937383	3.911000	28.800000	7.730000	18.620871
16029.995863	7.661681	0.031336	0.048484	12.089650	0.183715	0.090555	11.213366	0.094069	0.093782	8.406489	3.949525	3.915879	28.800000	7.730000	18.620871
16059.995579	7.661996	0.069388	0.048494	12.075536	0.183494	0.090616	11.273427	0.092784	0.093514	8.417966	3.953310	3.921271	28.800000	7.730000	18.620871
16089.995296	7.660739	0.041269	0.048428	12.084254	0.183336	0.090578	11.330895	0.092777	0.093259	8.430947	3.952049	3.927092	28.800000	7.730000	18.620871
16119.996011	7.659063	0.027032	0.048327	12.072772	0.182871	0.090628	11.393241	0.092430	0.092982	8.441764	3.962299	3.932154	28.800000	7.730000	18.620871
16149.995727	7.662298	0.070113	0.048508	12.069754	0.182800	0.090641	11.449075	0.092603	0.092736	8.452793	3.959381	3.937218	28.800000	7.730000	18.620871
16179.995443	7.661337	0.069522	0.048454	12.068738	0.182659	0.090645	11.500879	0.091941	0.092507	8.464068	3.964743	3.942369	28.800000	7.730000	18.620871
16209.995159	7.662179	0.053779	0.048503	12.072478	0.182430	0.090629	11.548223	0.091720	0.092299	8.473844	3.958120	3.946781	28.800000	7.730000	18.620871
16239.995875	7.660826	0.029169	0.048431	12.080383	0.181389	0.090595	11.589788	0.091901	0.092117	8.483295	3.959460	3.951002	28.800000	7.730000	18.620871
16269.995591	7.659279	0.029894	0.048349	12.091262	0.182217	0.090548	11.629862	0.091168	0.091942	8.490878	3.963797	3.954335	28.800000	7.730000	18.620871
16299.995306	7.656462	0.063467	0.048192	12.096521	0.181161	0.090525	11.673056	0.091389	0.091753	8.495976	3.961037	3.956599	28.800000	7.730000	18.620871
16329.996023	7.654123	0.047623	0.048062	12.100657	0.181807	0.090508	11.711426	0.091113	0.091586	8.502068	3.969868	3.959329	28.800000	7.730000	18.620871
16359.995739	7.654327	0.050626	0.048074	12.101100	0.181492	0.090506	11.750490	0.090459	0.091416	8.503857	3.964901	3.960137	28.800000	7.730000	18.620871
16389.995454	7.653183	0.047851	0.048003	12.088940	0.181563	0.090558	11.789200	0.090585	0.091248	8.504238	3.959460	3.960444	28.800000	7.730000	18.620871
16419.995170	7.654959	0.041111	0.048099	12.080580	0.180648	0.090594	11.831659	0.090743	0.091065	8.504461	3.956937	3.960639	28.800000	7.730000	18.620871
16449.995886	7.653377	0.067732	0.048010	12.082902	0.181421	0.090584	11.858549	0.090727	0.090948	8.504083	3.953152	3.960440	28.800000	7.730000	18.620871
16479.995602	7.653039	0.050074	0.047991	12.082243	0.180956	0.090587	11.885730	0.091318	0.090831	8.501071	3.944400	3.959074	28.800000	7.730000	18.620871
16509.995318	7.652819	0.025314	0.047979	12.083095	0.181058	0.090583	11.911152	0.090869	0.090722	8.497581	3.938250	3.957473	28.800000	7.730000	18.620871
16539.996034	7.651970	0.040449	0.047931	12.082836	0.181019	0.090584	11.932588	0.090751	0.090630	8.492565	3.939985	3.955189	28.800000	7.730000	18.620871
16569.995750	7.652290	0.051028	0.047953	12.091307	0.180885	0.090548	11.943545	0.090987	0.090582	8.489336	3.940931	3.953621	28.800000	7.730000	18.620871
16599.995466	7.652331	0.065013	0.047958	12.096084	0.180830	0.090527	11.966021	0.089269	0.090486	8.485216	3.944479	3.951689	28.800000	7.730000	18.620871
16629.995182	7.653543	0.043019	0.048031	12.104576	0.180341	0.090491	11.988444	0.090877	0.090390	8.479174	3.932100	3.948838	28.800000	7.730000	18.620871
16659.995898	7.653238	0.040370	0.048015	12.107058	0.179521	0.090480	12.016099	0.090396	0.090271	8.473960	3.943296	3.946433	28.800000	7.730000	18.620871
16689.995614	7.651867	0.030840	0.047939	12.110725	0.180120	0.090465	12.046789	0.089820	0.090140	8.469658	3.936989	3.944430	28.800000	7.730000	18.620871
16719.995329	7.650104	0.026236	0.047836	12.103868	0.179868	0.090494	12.090079	0.090033	0.089955	8.464602	3.934465	3.942201	28.800000	7.730000	18.620871
16749.996045	7.648478	0.062143	0.047742	12.100887	0.180160	0.090507	12.121412	0.089387	0.089822	8.459703	3.932573	3.940001	28.800000	7.730000	18.620871
16779.995761	7.647486	0.052644	0.047679	12.087725	0.179592	0.090563	12.158116	0.089907	0.089666	8.455647	3.927132	3.938299	28.800000	7.730000	18.620871
16809.995477	7.647282	0.070042	0.047670	12.091712	0.180822	0.090546	12.171044	0.089560	0.089611	8.451532	3.913413	3.936378	28.800000	7.730000	18.620871
16839.995193	7.647349	0.035806	0.047672	12.087687	0.180601	0.090563	12.177027	0.089939	0.089585	8.445735	3.917119	3.933779	28.800000	7.730000	18.620871
16869.995909	7.649506	0.024399	0.047796	12.091243	0.180491	0.090548	12.158269	0.090688	0.089665	8.438800	3.903478	3.930577	28.800000	7.730000	18.620871
16899.995625	7.649390	0.056050	0.047790	12.092951	0.180041	0.090541	12.136498	0.089978	0.089758	8.429396	3.902295	3.926270	28.800000	7.730000	18.620871
16929.995341	7.648685	0.060606	0.047754	12.101428	0.179750	0.090504	12.097104	0.090711	0.089925	8.420083	3.896145	3.921916	28.800000	7.730000	18.620871
16959.996057	7.648615	0.049775	0.047750	12.101111	0.181515	0.090506	12.070316	0.090238	0.090040	8.410697	3.894253	3.917635	28.800000	7.730000	18.620871
16989.995772	7.648646	0.029058	0.047756	12.108748	0.180286	0.090473	12.046404	0.089773	0.090142	8.399772	3.885974	3.912584	28.800000	7.730000	18.620871
17019.995488	7.649986	0.065722	0.047833	12.110312	0.180467	0.090466	12.042975	0.089095	0.090156	8.391436	3.902138	3.908765	28.800000	7.730000	18.620871
17049.995204	7.648448	0.024557	0.047745	12.109301	0.181263	0.090471	12.052983	0.089852	0.090114	8.385451	3.909628	3.906047	28.800000	7.730000	18.620871
17079.995920	7.648918	0.069648	0.047772	12.110349	0.179970	0.090466	12.078484	0.089678	0.090005	8.380843	3.907263	3.903934	28.800000	7.730000	18.620871
17109.995636	7.647788	0.055498	0.047708	12.110849	0.179592	0.090464	12.109448	0.089150	0.089873	8.377436	3.913334	3.902375	28.800000	7.730000	18.620871
17139.995352	7.647128	0.042041	0.047671	12.110249	0.180136	0.090467	12.139292	0.089647	0.089746	8.377423	3.913413	3.902375	28.800000	7.730000	18.620871
17169.996068	7.646421	0.059021	0.047632	12.112932	0.180168	0.090455	12.158015	0.089544	0.089666	8.376512	3.906001	3.901930	28.800000	7.730000	18.620871
17199.995784	7.646314	0.062222	0.047629	12.118238	0.180254	0.090432	12.164871	0.089647	0.089637	8.376661	3.898511	3.901938	28.800000	7.730000	18.620871
17229.995500	7.645806	0.045171	0.047600	12.117388	0.181437	0.090436	12.156708	0.089276	0.089672	8.376171	3.891020	3.901724	28.800000	7.730000	18.620871
17259.995215	7.646164	0.061836	0.047617	12.111371	0.180806	0.090462	12.138940	0.090128	0.089747	8.375415	3.887235	3.901447	28.800000	7.730000	18.620871
17289.995932	7.646277	0.031526	0.047623	12.109757	0.180767	0.090469	12.108723	0.090412	0.089876	8.374514	3.887156	3.901054	28.800000	7.730000	18.620871
17319.995647	7.644595	0.031376	0.047532	12.118835	0.181279	0.090430	12.067773	0.090270	0.090050	8.371951	3.878483	3.899776	28.800000	7.730000	18.620871
17349.995363	7.644747	0.047055	0.047541	12.120221	0.181106	0.090424	12.026548	0.090782	0.090227	8.366605	3.888497	3.897330	28.800000	7.730000	18.620871
17379.996079	7.647223	0.060425	0.047682	12.121896	0.180987	0.090417	11.983736	0.091444	0.090410	8.361781	3.891099	3.895106	28.800000	7.730000	18.620871
17409.995795	7.649389	0.026938	0.047807	12.125704	0.181137	0.090400	11.943222	0.089994	0.090584	8.358174	3.887393	3.893416	28.800000	7.730000	18.620871
17439.995511	7.648747	0.038975	0.047774	12.132916	0.181216	0.090369	11.902630	0.091113	0.090758	8.353376	3.881006	3.891145	28.800000	7.730000	18.620871
17469.995227	7.649896	0.047071	0.047835	12.124894	0.181941	0.090404	11.870462	0.091358	0.090897	8.348244	3.882268	3.888897	28.800000	7.730000	18.620871
17499.995943	7.649836	0.027403	0.047832	12.125224	0.181823	0.090402	11.831531	0.091287	0.091065	8.344308	3.883529	3.887102	28.800000	7.730000	18.620871
17529.995659	7.651886	0.031384	0.047947	12.122919	0.182209	0.090412	11.802437	0.092311	0.091191	8.341298	3.874777	3.885755	28.800000	7.730000	18.620871
17559.995375	7.652333	0.024975	0.047973	12.125088	0.182083	0.090403	11.769846	0.091728	0.091332	8.337936	3.879745	3.884200	28.800000	7.730000	18.620871
17589.995090	7.652097	0.061150	0.047958	12.121659	0.182130	0.090418	11.744642	0.092493	0.091442	8.336368	3.884712	3.883525	28.800000	7.730000	18.620871
17619.995806	7.652450	0.062080	0.047974	12.114484	0.182674	0.090448	11.721371	0.091909	0.091543	8.335843	3.878483	3.883367	28.800000	7.730000	18.620871
17649.995522	7.653433	0.056554	0.048022	12.099648	0.183392	0.090512	11.707127	0.091050	0.091605	8.335132	3.882268	3.883207	28.800000	7.730000	18.620871
17679.995238	7.653745	0.066676	0.048044	12.107661	0.182430	0.090478	11.683085	0.091775	0.091709	8.334367	3.881085	3.882768	28.800000	7.730000	18.620871
17709.995954	7.654969	0.046826	0.048115	12.111418	0.182272	0.090462	11.660600	0.091933	0.091807	8.331406	3.874856	3.881374	28.800000	7.730000	18.620871
17739.995670	7.654699	0.034663	0.048098	12.106874	0.182911	0.090481	11.641775	0.091570	0.091890	8.329626	3.879824	3.880617	28.800000	7.730000	18.620871
17769.995386	7.656078	0.024880	0.048177	12.108578	0.182091	0.090474	11.619559	0.091421	0.091987	8.328288	3.879824	3.879987	28.800000	7.730000	18.620871
17799.995102	7.657330	0.059660	0.048252	12.117465	0.182745	0.090436	11.596994	0.092004	0.092085	8.328115	3.882347	3.879809	28.800000	7.730000	18.620871
17829.995818	7.658119	0.069656	0.048292	12.109277	0.182745	0.090471	11.583416	0.092059	0.092145	8.328806	3.879824	3.880218	28.800000	7.730000	18.620871
17859.995533	7.658749	0.030879	0.048328	12.108541	0.182698	0.090474	11.575582	0.092177	0.092179	8.331237	3.894647	3.881338	28.800000	7.730000	18.620871
17889.995249	7.657639	0.053661	0.048266	12.110966	0.182256	0.090463	11.573720	0.091996	0.092187	8.334212	3.892282	3.882665	28.800000	7.730000	18.620871
17919.995965	7.658991	0.025716	0.048348	12.120726	0.183439	0.090422	11.580461	0.091208	0.092158	8.336489	3.892282	3.883596	28.800000	7.730000	18.620871
17949.995681	7.659315	0.062971	0.048369	12.126478	0.182863	0.090397	11.589655	0.092493	0.092118	8.340247	3.897249	3.885246	28.800000	7.730000	18.620871
17979.995397	7.660048	0.070956	0.048412	12.129434	0.182816	0.090384	11.598051	0.092051	0.092081	8.342664	3.893701	3.886314	28.800000	7.730000	18.620871
18009.995113	7.658967	0.032810	0.048355	12.136241	0.182651	0.090355	11.596699	0.093060	0.092087	8.345560	3.892518	3.887560	28.800000	7.730000	18.620871
18039.995829	7.658375	0.045439	0.048327	12.148264	0.182564	0.090304	11.584799	0.092233	0.092139	8.348171	3.882268	3.888611	28.800000	7.730000	18.620871
18069.995545	7.659303	0.070003	0.048375	12.138165	0.182651	0.090347	11.575197	0.092406	0.092181	8.349468	3.891178	3.889318	28.800000	7.730000	18.620871
